%OpenBCI Raw EEG Data
%Number of channels = 8
%Sample Rate = 250.0 Hz
%First Column = SampleIndex
%Last Column = Timestamp 
%Other Columns = EEG data in microvolts followed by Accel Data (in G) interleaved with Aux Data
0, 0.00, 0.00, 0.00, 0.00, 0.00, 0.00, 0.00, 0.00, -0.002, -0.020, 0.984, 13:57:26.856, 1574276246856
1, -187500.02, 10209.96, 4996.02, -187500.02, -187500.02, 0.00, -187500.02, -187500.02, 0.000, 0.000, 0.000, 13:57:26.920, 1574276246920
2, -187500.02, 10210.83, 4992.15, -187500.02, -187500.02, 0.00, -187500.02, -187500.02, 0.000, 0.000, 0.000, 13:57:26.920, 1574276246920
3, -187500.02, 10218.01, 5007.51, -187500.02, -187500.02, 0.00, -187500.02, -187500.02, 0.000, 0.000, 0.000, 13:57:26.920, 1574276246920
4, -187500.02, 10228.54, 5033.57, -187500.02, -187500.02, 0.00, -187500.02, -187500.02, 0.000, 0.000, 0.000, 13:57:26.920, 1574276246920
5, -187500.02, 10222.26, 5025.45, -187500.02, -187500.02, 0.00, -187500.02, -187500.02, 0.000, 0.000, 0.000, 13:57:26.920, 1574276246920
6, -187500.02, 10226.66, 5010.48, -187500.02, -187500.02, 0.00, -187500.02, -187500.02, 0.000, 0.000, 0.000, 13:57:26.920, 1574276246920
7, -187500.02, 10250.76, 5021.74, -187500.02, -187500.02, 0.00, -187500.02, -187500.02, 0.000, 0.000, 0.000, 13:57:26.921, 1574276246921
8, -187500.02, 10244.92, 5033.19, -187500.02, -187500.02, 0.00, -187500.02, -187500.02, 0.006, -0.020, 0.980, 13:57:26.921, 1574276246921
9, -187500.02, 10230.64, 5015.87, -187500.02, -187500.02, 0.00, -187500.02, -187500.02, 0.000, 0.000, 0.000, 13:57:26.921, 1574276246921
10, -187500.02, 10230.71, 5003.57, -187500.02, -187500.02, 0.00, -187500.02, -187500.02, 0.000, 0.000, 0.000, 13:57:26.921, 1574276246921
11, -187500.02, 10243.33, 5023.02, -187500.02, -187500.02, 0.00, -187500.02, -187500.02, 0.000, 0.000, 0.000, 13:57:26.921, 1574276246921
12, -187500.02, 10233.32, 5016.76, -187500.02, -187500.02, 0.00, -187500.02, -187500.02, 0.000, 0.000, 0.000, 13:57:26.921, 1574276246921
13, -187500.02, 10241.48, 5013.76, -187500.02, -187500.02, 0.00, -187500.02, -187500.02, 0.000, 0.000, 0.000, 13:57:26.921, 1574276246921
14, -187500.02, 10248.86, 5021.01, -187500.02, -187500.02, 0.00, -187500.02, -187500.02, 0.000, 0.000, 0.000, 13:57:26.921, 1574276246921
15, -187500.02, 10234.08, 5012.40, -187500.02, -187500.02, 0.00, -187500.02, -187500.02, 0.000, 0.000, 0.000, 13:57:26.921, 1574276246921
16, -187500.02, 10233.30, 5002.30, -187500.02, -187500.02, 0.00, -187500.02, -187500.02, 0.000, 0.000, 0.000, 13:57:26.982, 1574276246982
17, -187500.02, 10231.67, 4983.48, -187500.02, -187500.02, 0.00, -187500.02, -187500.02, 0.000, 0.000, 0.000, 13:57:26.983, 1574276246983
18, -187500.02, 10267.65, 5026.66, -187500.02, -187500.02, 0.00, -187500.02, -187500.02, 0.004, -0.018, 0.986, 13:57:26.983, 1574276246983
19, -187500.02, 10273.11, 5051.14, -187500.02, -187500.02, 0.00, -187500.02, -187500.02, 0.000, 0.000, 0.000, 13:57:26.984, 1574276246984
20, -187500.02, 10238.53, 5011.02, -187500.02, -187500.02, 0.00, -187500.02, -187500.02, 0.000, 0.000, 0.000, 13:57:26.984, 1574276246984
21, -187500.02, 10240.05, 4996.69, -187500.02, -187500.02, 0.00, -187500.02, -187500.02, 0.000, 0.000, 0.000, 13:57:26.984, 1574276246984
22, -187500.02, 10259.76, 5018.59, -187500.02, -187500.02, 0.00, -187500.02, -187500.02, 0.000, 0.000, 0.000, 13:57:26.984, 1574276246984
23, -187500.02, 10266.11, 5035.65, -187500.02, -187500.02, 0.00, -187500.02, -187500.02, 0.000, 0.000, 0.000, 13:57:26.984, 1574276246984
24, -187500.02, 10259.96, 5010.77, -187500.02, -187500.02, 0.00, -187500.02, -187500.02, 0.000, 0.000, 0.000, 13:57:26.984, 1574276246984
25, -187500.02, 10262.56, 4984.89, -187500.02, -187500.02, 0.00, -187500.02, -187500.02, 0.000, 0.000, 0.000, 13:57:26.984, 1574276246984
26, -187500.02, 10285.89, 5019.49, -187500.02, -187500.02, 0.00, -187500.02, -187500.02, 0.000, 0.000, 0.000, 13:57:26.984, 1574276246984
27, -187500.02, 10283.21, 5029.16, -187500.02, -187500.02, 0.00, -187500.02, -187500.02, 0.000, -0.016, 0.988, 13:57:26.985, 1574276246985
28, -187500.02, 10291.06, 5026.55, -187500.02, -187500.02, 0.00, -187500.02, -187500.02, 0.000, 0.000, 0.000, 13:57:26.985, 1574276246985
29, -187500.02, 10282.00, 5042.96, -187500.02, -187500.02, 0.00, -187500.02, -187500.02, 0.000, 0.000, 0.000, 13:57:26.985, 1574276246985
30, -187500.02, 10256.59, 5012.89, -187500.02, -187500.02, 0.00, -187500.02, -187500.02, 0.000, 0.000, 0.000, 13:57:26.985, 1574276246985
31, -187500.02, 10260.77, 4990.94, -187500.02, -187500.02, 0.00, -187500.02, -187500.02, 0.000, 0.000, 0.000, 13:57:27.042, 1574276247042
32, -187500.02, 10295.30, 5016.13, -187500.02, -187500.02, 0.00, -187500.02, -187500.02, 0.000, 0.000, 0.000, 13:57:27.043, 1574276247043
33, -187500.02, 10287.73, 5043.94, -187500.02, -187500.02, 0.00, -187500.02, -187500.02, 0.000, 0.000, 0.000, 13:57:27.045, 1574276247045
34, -187500.02, 10283.93, 5039.56, -187500.02, -187500.02, 0.00, -187500.02, -187500.02, 0.000, 0.000, 0.000, 13:57:27.046, 1574276247046
35, -187500.02, 10282.67, 5023.80, -187500.02, -187500.02, 0.00, -187500.02, -187500.02, 0.000, 0.000, 0.000, 13:57:27.047, 1574276247047
36, -187500.02, 10283.59, 4990.92, -187500.02, -187500.02, 0.00, -187500.02, -187500.02, 0.000, 0.000, 0.000, 13:57:27.048, 1574276247048
37, -187500.02, 10268.73, 4974.43, -187500.02, -187500.02, 0.00, -187500.02, -187500.02, -0.004, -0.022, 0.988, 13:57:27.049, 1574276247049
38, -187500.02, 10279.88, 5022.66, -187500.02, -187500.02, 0.00, -187500.02, -187500.02, 0.000, 0.000, 0.000, 13:57:27.050, 1574276247050
39, -187500.02, 10309.25, 5067.23, -187500.02, -187500.02, 0.00, -187500.02, -187500.02, 0.000, 0.000, 0.000, 13:57:27.051, 1574276247051
40, -187500.02, 10303.95, 5048.77, -187500.02, -187500.02, 0.00, -187500.02, -187500.02, 0.000, 0.000, 0.000, 13:57:27.051, 1574276247051
41, -187500.02, 10278.09, 4995.59, -187500.02, -187500.02, 0.00, -187500.02, -187500.02, 0.000, 0.000, 0.000, 13:57:27.052, 1574276247052
42, -187500.02, 10291.30, 4984.10, -187500.02, -187500.02, 0.00, -187500.02, -187500.02, 0.000, 0.000, 0.000, 13:57:27.052, 1574276247052
43, -187500.02, 10311.11, 5034.44, -187500.02, -187500.02, 0.00, -187500.02, -187500.02, 0.000, 0.000, 0.000, 13:57:27.053, 1574276247053
44, -187500.02, 10304.29, 5043.98, -187500.02, -187500.02, 0.00, -187500.02, -187500.02, 0.000, 0.000, 0.000, 13:57:27.054, 1574276247054
45, -187500.02, 10287.55, 5018.48, -187500.02, -187500.02, 0.00, -187500.02, -187500.02, 0.000, 0.000, 0.000, 13:57:27.055, 1574276247055
46, -187500.02, 10290.36, 5005.99, -187500.02, -187500.02, 0.00, -187500.02, -187500.02, 0.000, 0.000, 0.000, 13:57:27.101, 1574276247101
47, -187500.02, 10304.36, 5036.21, -187500.02, -187500.02, 0.00, -187500.02, -187500.02, 0.002, -0.022, 0.988, 13:57:27.102, 1574276247102
48, -187500.02, 10302.66, 5039.11, -187500.02, -187500.02, 0.00, -187500.02, -187500.02, 0.000, 0.000, 0.000, 13:57:27.102, 1574276247102
49, -187500.02, 10315.29, 5032.12, -187500.02, -187500.02, 0.00, -187500.02, -187500.02, 0.000, 0.000, 0.000, 13:57:27.102, 1574276247102
50, -187500.02, 10311.26, 5020.83, -187500.02, -187500.02, 0.00, -187500.02, -187500.02, 0.000, 0.000, 0.000, 13:57:27.102, 1574276247102
51, -187500.02, 10288.35, 5009.07, -187500.02, -187500.02, 0.00, -187500.02, -187500.02, 0.000, 0.000, 0.000, 13:57:27.103, 1574276247103
52, -187500.02, 10288.17, 5021.19, -187500.02, -187500.02, 0.00, -187500.02, -187500.02, 0.000, 0.000, 0.000, 13:57:27.103, 1574276247103
53, -187500.02, 10291.44, 5022.01, -187500.02, -187500.02, 0.00, -187500.02, -187500.02, 0.000, 0.000, 0.000, 13:57:27.103, 1574276247103
54, -187500.02, 10293.60, 5000.20, -187500.02, -187500.02, 0.00, -187500.02, -187500.02, 0.000, 0.000, 0.000, 13:57:27.103, 1574276247103
55, -187500.02, 10323.06, 5046.15, -187500.02, -187500.02, 0.00, -187500.02, -187500.02, 0.000, 0.000, 0.000, 13:57:27.103, 1574276247103
56, -187500.02, 10299.42, 5041.19, -187500.02, -187500.02, 0.00, -187500.02, -187500.02, 0.000, 0.000, 0.000, 13:57:27.104, 1574276247104
57, -187500.02, 10314.06, 5063.23, -187500.02, -187500.02, 0.00, -187500.02, -187500.02, 0.004, -0.018, 0.984, 13:57:27.104, 1574276247104
58, -187500.02, 10316.54, 5070.90, -187500.02, -187500.02, 0.00, -187500.02, -187500.02, 0.000, 0.000, 0.000, 13:57:27.104, 1574276247104
59, -187500.02, 10301.54, 5026.68, -187500.02, -187500.02, 0.00, -187500.02, -187500.02, 0.000, 0.000, 0.000, 13:57:27.104, 1574276247104
60, -187500.02, 10296.02, 5001.85, -187500.02, -187500.02, 0.00, -187500.02, -187500.02, 0.000, 0.000, 0.000, 13:57:27.104, 1574276247104
61, -187500.02, 10319.91, 5055.83, -187500.02, -187500.02, 0.00, -187500.02, -187500.02, 0.000, 0.000, 0.000, 13:57:27.160, 1574276247160
62, -187500.02, 10327.47, 5063.30, -187500.02, -187500.02, 0.00, -187500.02, -187500.02, 0.000, 0.000, 0.000, 13:57:27.160, 1574276247160
63, -187500.02, 10300.98, 5016.20, -187500.02, -187500.02, 0.00, -187500.02, -187500.02, 0.000, 0.000, 0.000, 13:57:27.160, 1574276247160
64, -187500.02, 10309.61, 5038.35, -187500.02, -187500.02, 0.00, -187500.02, -187500.02, 0.000, 0.000, 0.000, 13:57:27.160, 1574276247160
65, -187500.02, 10324.02, 5075.43, -187500.02, -187500.02, 0.00, -187500.02, -187500.02, 0.000, 0.000, 0.000, 13:57:27.160, 1574276247160
66, -187500.02, 10321.12, 5072.97, -187500.02, -187500.02, 0.00, -187500.02, -187500.02, 0.000, 0.000, 0.000, 13:57:27.161, 1574276247161
67, -187500.02, 10307.53, 5043.31, -187500.02, -187500.02, 0.00, -187500.02, -187500.02, -0.004, -0.016, 0.982, 13:57:27.161, 1574276247161
68, -187500.02, 10311.60, 5009.00, -187500.02, -187500.02, 0.00, -187500.02, -187500.02, 0.000, 0.000, 0.000, 13:57:27.161, 1574276247161
69, -187500.02, 10321.57, 5012.76, -187500.02, -187500.02, 0.00, -187500.02, -187500.02, 0.000, 0.000, 0.000, 13:57:27.161, 1574276247161
70, -187500.02, 10337.70, 5055.09, -187500.02, -187500.02, 0.00, -187500.02, -187500.02, 0.000, 0.000, 0.000, 13:57:27.161, 1574276247161
71, -187500.02, 10328.36, 5058.18, -187500.02, -187500.02, 0.00, -187500.02, -187500.02, 0.000, 0.000, 0.000, 13:57:27.161, 1574276247161
72, -187500.02, 10309.07, 5041.53, -187500.02, -187500.02, 0.00, -187500.02, -187500.02, 0.000, 0.000, 0.000, 13:57:27.161, 1574276247161
73, -187500.02, 10301.32, 5025.86, -187500.02, -187500.02, 0.00, -187500.02, -187500.02, 0.000, 0.000, 0.000, 13:57:27.161, 1574276247161
74, -187500.02, 10314.23, 5039.69, -187500.02, -187500.02, 0.00, -187500.02, -187500.02, 0.000, 0.000, 0.000, 13:57:27.161, 1574276247161
75, -187500.02, 10330.15, 5050.24, -187500.02, -187500.02, 0.00, -187500.02, -187500.02, 0.000, 0.000, 0.000, 13:57:27.162, 1574276247162
76, -187500.02, 10338.49, 5062.76, -187500.02, -187500.02, 0.00, -187500.02, -187500.02, 0.000, 0.000, 0.000, 13:57:27.219, 1574276247219
77, -187500.02, 10325.46, 5056.88, -187500.02, -187500.02, 0.00, -187500.02, -187500.02, -0.006, -0.018, 0.988, 13:57:27.219, 1574276247219
78, -187500.02, 10321.52, 5041.12, -187500.02, -187500.02, 0.00, -187500.02, -187500.02, 0.000, 0.000, 0.000, 13:57:27.220, 1574276247220
79, -187500.02, 10330.95, 5058.24, -187500.02, -187500.02, 0.00, -187500.02, -187500.02, 0.000, 0.000, 0.000, 13:57:27.220, 1574276247220
80, -187500.02, 10341.01, 5072.15, -187500.02, -187500.02, 0.00, -187500.02, -187500.02, 0.000, 0.000, 0.000, 13:57:27.220, 1574276247220
81, -187500.02, 10327.47, 5054.82, -187500.02, -187500.02, 0.00, -187500.02, -187500.02, 0.000, 0.000, 0.000, 13:57:27.220, 1574276247220
82, -187500.02, 10307.48, 5012.67, -187500.02, -187500.02, 0.00, -187500.02, -187500.02, 0.000, 0.000, 0.000, 13:57:27.220, 1574276247220
83, -187500.02, 10330.95, 5038.28, -187500.02, -187500.02, 0.00, -187500.02, -187500.02, 0.000, 0.000, 0.000, 13:57:27.220, 1574276247220
84, -187500.02, 10329.46, 5037.66, -187500.02, -187500.02, 0.00, -187500.02, -187500.02, 0.000, 0.000, 0.000, 13:57:27.220, 1574276247220
85, -187500.02, 10319.24, 5025.07, -187500.02, -187500.02, 0.00, -187500.02, -187500.02, 0.000, 0.000, 0.000, 13:57:27.220, 1574276247220
86, -187500.02, 10336.47, 5057.89, -187500.02, -187500.02, 0.00, -187500.02, -187500.02, 0.000, 0.000, 0.000, 13:57:27.220, 1574276247220
87, -187500.02, 10352.61, 5066.51, -187500.02, -187500.02, 0.00, -187500.02, -187500.02, -0.004, -0.024, 0.990, 13:57:27.221, 1574276247221
88, -187500.02, 10325.70, 5037.61, -187500.02, -187500.02, 0.00, -187500.02, -187500.02, 0.000, 0.000, 0.000, 13:57:27.221, 1574276247221
89, -187500.02, 10307.86, 5008.76, -187500.02, -187500.02, 0.00, -187500.02, -187500.02, 0.000, 0.000, 0.000, 13:57:27.221, 1574276247221
90, -187500.02, 10322.77, 5004.20, -187500.02, -187500.02, 0.00, -187500.02, -187500.02, 0.000, 0.000, 0.000, 13:57:27.221, 1574276247221
91, -187500.02, 10359.83, 5069.17, -187500.02, -187500.02, 0.00, -187500.02, -187500.02, 0.000, 0.000, 0.000, 13:57:27.280, 1574276247280
92, -187500.02, 10345.82, 5070.49, -187500.02, -187500.02, 0.00, -187500.02, -187500.02, 0.000, 0.000, 0.000, 13:57:27.281, 1574276247281
93, -187500.02, 10342.49, 5062.42, -187500.02, -187500.02, 0.00, -187500.02, -187500.02, 0.000, 0.000, 0.000, 13:57:27.281, 1574276247281
94, -187500.02, 10331.20, 5060.75, -187500.02, -187500.02, 0.00, -187500.02, -187500.02, 0.000, 0.000, 0.000, 13:57:27.281, 1574276247281
95, -187500.02, 10317.18, 5038.44, -187500.02, -187500.02, 0.00, -187500.02, -187500.02, 0.000, 0.000, 0.000, 13:57:27.281, 1574276247281
96, -187500.02, 10334.17, 5052.57, -187500.02, -187500.02, 0.00, -187500.02, -187500.02, 0.000, 0.000, 0.000, 13:57:27.281, 1574276247281
97, -187500.02, 10322.55, 5042.29, -187500.02, -187500.02, 0.00, -187500.02, -187500.02, -0.004, -0.018, 0.994, 13:57:27.281, 1574276247281
98, -187500.02, 10313.41, 5005.18, -187500.02, -187500.02, 0.00, -187500.02, -187500.02, 0.000, 0.000, 0.000, 13:57:27.281, 1574276247281
99, -187500.02, 10345.53, 5022.59, -187500.02, -187500.02, 0.00, -187500.02, -187500.02, 0.000, 0.000, 0.000, 13:57:27.281, 1574276247281
100, -187500.02, 10355.05, 5054.69, -187500.02, -187500.02, 0.00, -187500.02, -187500.02, 0.000, 0.000, 0.000, 13:57:27.281, 1574276247281
101, -187500.02, 10339.60, 5049.57, -187500.02, -187500.02, 0.00, -187500.02, -187500.02, 0.000, 0.000, 0.000, 13:57:27.281, 1574276247281
102, -187500.02, 10334.91, 5029.05, -187500.02, -187500.02, 0.00, -187500.02, -187500.02, 0.000, 0.000, 0.000, 13:57:27.282, 1574276247282
103, -187500.02, 10349.91, 5047.09, -187500.02, -187500.02, 0.00, -187500.02, -187500.02, 0.000, 0.000, 0.000, 13:57:27.282, 1574276247282
104, -187500.02, 10352.72, 5082.14, -187500.02, -187500.02, 0.00, -187500.02, -187500.02, 0.000, 0.000, 0.000, 13:57:27.282, 1574276247282
105, -187500.02, 10343.65, 5073.64, -187500.02, -187500.02, 0.00, -187500.02, -187500.02, 0.000, 0.000, 0.000, 13:57:27.282, 1574276247282
106, -187500.02, 10333.26, 5035.09, -187500.02, -187500.02, 0.00, -187500.02, -187500.02, 0.000, 0.000, 0.000, 13:57:27.339, 1574276247339
107, -187500.02, 10334.57, 5021.61, -187500.02, -187500.02, 0.00, -187500.02, -187500.02, -0.006, -0.018, 0.990, 13:57:27.339, 1574276247339
108, -187500.02, 10347.18, 5044.03, -187500.02, -187500.02, 0.00, -187500.02, -187500.02, 0.000, 0.000, 0.000, 13:57:27.339, 1574276247339
109, -187500.02, 10335.36, 5023.31, -187500.02, -187500.02, 0.00, -187500.02, -187500.02, 0.000, 0.000, 0.000, 13:57:27.339, 1574276247339
110, -187500.02, 10349.06, 5037.57, -187500.02, -187500.02, 0.00, -187500.02, -187500.02, 0.000, 0.000, 0.000, 13:57:27.339, 1574276247339
111, -187500.02, 10355.32, 5044.54, -187500.02, -187500.02, 0.00, -187500.02, -187500.02, 0.000, 0.000, 0.000, 13:57:27.339, 1574276247339
112, -187500.02, 10358.31, 5058.18, -187500.02, -187500.02, 0.00, -187500.02, -187500.02, 0.000, 0.000, 0.000, 13:57:27.340, 1574276247340
113, -187500.02, 10335.74, 5040.83, -187500.02, -187500.02, 0.00, -187500.02, -187500.02, 0.000, 0.000, 0.000, 13:57:27.340, 1574276247340
114, -187500.02, 10347.16, 5043.92, -187500.02, -187500.02, 0.00, -187500.02, -187500.02, 0.000, 0.000, 0.000, 13:57:27.340, 1574276247340
115, -187500.02, 10339.85, 5037.03, -187500.02, -187500.02, 0.00, -187500.02, -187500.02, 0.000, 0.000, 0.000, 13:57:27.340, 1574276247340
116, -187500.02, 10307.37, 4995.06, -187500.02, -187500.02, 0.00, -187500.02, -187500.02, 0.000, 0.000, 0.000, 13:57:27.340, 1574276247340
117, -187500.02, 10344.95, 5041.01, -187500.02, -187500.02, 0.00, -187500.02, -187500.02, 0.002, -0.018, 0.982, 13:57:27.340, 1574276247340
118, -187500.02, 10354.24, 5083.41, -187500.02, -187500.02, 0.00, -187500.02, -187500.02, 0.000, 0.000, 0.000, 13:57:27.340, 1574276247340
119, -187500.02, 10333.12, 5046.64, -187500.02, -187500.02, 0.00, -187500.02, -187500.02, 0.000, 0.000, 0.000, 13:57:27.341, 1574276247341
120, -187500.02, 10353.62, 5036.83, -187500.02, -187500.02, 0.00, -187500.02, -187500.02, 0.000, 0.000, 0.000, 13:57:27.341, 1574276247341
121, -187500.02, 10349.26, 5035.58, -187500.02, -187500.02, 0.00, -187500.02, -187500.02, 0.000, 0.000, 0.000, 13:57:27.401, 1574276247401
122, -187500.02, 10352.01, 5054.27, -187500.02, -187500.02, 0.00, -187500.02, -187500.02, 0.000, 0.000, 0.000, 13:57:27.401, 1574276247401
123, -187500.02, 10338.58, 5051.20, -187500.02, -187500.02, 0.00, -187500.02, -187500.02, 0.000, 0.000, 0.000, 13:57:27.402, 1574276247402
124, -187500.02, 10324.52, 4958.65, -187500.02, -187500.02, 0.00, -187500.02, -187500.02, 0.000, 0.000, 0.000, 13:57:27.402, 1574276247402
125, -187500.02, 10350.18, 5014.79, -187500.02, -187500.02, 0.00, -187500.02, -187500.02, 0.000, 0.000, 0.000, 13:57:27.402, 1574276247402
126, -187500.02, 10361.67, 5098.83, -187500.02, -187500.02, 0.00, -187500.02, -187500.02, 0.000, 0.000, 0.000, 13:57:27.403, 1574276247403
127, -187500.02, 10365.33, 5095.39, -187500.02, -187500.02, 0.00, -187500.02, -187500.02, -0.002, -0.018, 0.988, 13:57:27.404, 1574276247404
128, -187500.02, 10312.89, 5004.85, -187500.02, -187500.02, 0.00, -187500.02, -187500.02, 0.000, 0.000, 0.000, 13:57:27.404, 1574276247404
129, -187500.02, 10318.01, 4931.60, -187500.02, -187500.02, 0.00, -187500.02, -187500.02, 0.000, 0.000, 0.000, 13:57:27.405, 1574276247405
130, -187500.02, 10374.43, 4995.77, -187500.02, -187500.02, 0.00, -187500.02, -187500.02, 0.000, 0.000, 0.000, 13:57:27.405, 1574276247405
131, -187500.02, 10338.91, 4967.14, -187500.02, -187500.02, 0.00, -187500.02, -187500.02, 0.000, 0.000, 0.000, 13:57:27.405, 1574276247405
132, -187500.02, 10331.00, 4935.89, -187500.02, -187500.02, 0.00, -187500.02, -187500.02, 0.000, 0.000, 0.000, 13:57:27.406, 1574276247406
133, -187500.02, 10340.94, 5050.58, -187500.02, -187500.02, 0.00, -187500.02, -187500.02, 0.000, 0.000, 0.000, 13:57:27.406, 1574276247406
134, -187500.02, 10295.24, 5004.40, -187500.02, -187500.02, 0.00, -187500.02, -187500.02, 0.000, 0.000, 0.000, 13:57:27.406, 1574276247406
135, -187500.02, 10335.29, 4944.34, -187500.02, -187500.02, 0.00, -187500.02, -187500.02, 0.000, 0.000, 0.000, 13:57:27.406, 1574276247406
136, -187500.02, 10374.14, 4996.04, -187500.02, -187500.02, 0.00, -187500.02, -187500.02, 0.000, 0.000, 0.000, 13:57:27.459, 1574276247459
137, -187500.02, 10301.05, 4984.60, -187500.02, -187500.02, 0.00, -187500.02, -187500.02, -0.002, -0.018, 0.992, 13:57:27.459, 1574276247459
138, -187500.02, 10372.37, 5027.09, -187500.02, -187500.02, 0.00, -187500.02, -187500.02, 0.000, 0.000, 0.000, 13:57:27.460, 1574276247460
139, -187500.02, 10370.67, 5204.02, -187500.02, -187500.02, 0.00, -187500.02, -187500.02, 0.000, 0.000, 0.000, 13:57:27.460, 1574276247460
140, -187500.02, 10272.26, 5113.14, -187500.02, -187500.02, 0.00, -187500.02, -187500.02, 0.000, 0.000, 0.000, 13:57:27.460, 1574276247460
141, -187500.02, 10256.23, 5013.56, -187500.02, -187500.02, 0.00, -187500.02, -187500.02, 0.000, 0.000, 0.000, 13:57:27.460, 1574276247460
142, -187500.02, 10289.51, 5051.18, -187500.02, -187500.02, 0.00, -187500.02, -187500.02, 0.000, 0.000, 0.000, 13:57:27.461, 1574276247461
143, -187500.02, 10299.75, 5097.34, -187500.02, -187500.02, 0.00, -187500.02, -187500.02, 0.000, 0.000, 0.000, 13:57:27.461, 1574276247461
144, -187500.02, 10259.03, 5050.13, -187500.02, -187500.02, 0.00, -187500.02, -187500.02, 0.000, 0.000, 0.000, 13:57:27.461, 1574276247461
145, -187500.02, 10262.16, 5036.23, -187500.02, -187500.02, 0.00, -187500.02, -187500.02, 0.000, 0.000, 0.000, 13:57:27.461, 1574276247461
146, -187500.02, 10217.18, 5078.50, -187500.02, -187500.02, 0.00, -187500.02, -187500.02, 0.000, 0.000, 0.000, 13:57:27.462, 1574276247462
147, -187500.02, 10194.34, 5043.54, -187500.02, -187500.02, 0.00, -187500.02, -187500.02, 0.000, -0.016, 0.982, 13:57:27.462, 1574276247462
148, -187500.02, 10182.78, 5019.06, -187500.02, -187500.02, 0.00, -187500.02, -187500.02, 0.000, 0.000, 0.000, 13:57:27.462, 1574276247462
149, -187500.02, 10177.87, 5076.73, -187500.02, -187500.02, 0.00, -187500.02, -187500.02, 0.000, 0.000, 0.000, 13:57:27.462, 1574276247462
150, -187500.02, 10164.66, 5107.84, -187500.02, -187500.02, 0.00, -187500.02, -187500.02, 0.000, 0.000, 0.000, 13:57:27.462, 1574276247462
151, -187500.02, 10134.84, 5100.20, -187500.02, -187500.02, 0.00, -187500.02, -187500.02, 0.000, 0.000, 0.000, 13:57:27.521, 1574276247521
152, -187500.02, 10122.50, 5108.78, -187500.02, -187500.02, 0.00, -187500.02, -187500.02, 0.000, 0.000, 0.000, 13:57:27.522, 1574276247522
153, -187500.02, 10088.93, 5094.36, -187500.02, -187500.02, 0.00, -187500.02, -187500.02, 0.000, 0.000, 0.000, 13:57:27.522, 1574276247522
154, -187500.02, 10069.68, 5078.47, -187500.02, -187500.02, 0.00, -187500.02, -187500.02, 0.000, 0.000, 0.000, 13:57:27.523, 1574276247523
155, -187500.02, 10044.65, 5060.52, -187500.02, -187500.02, 0.00, -187500.02, -187500.02, 0.000, 0.000, 0.000, 13:57:27.523, 1574276247523
156, -187500.02, 10017.67, 5074.94, -187500.02, -187500.02, 0.00, -187500.02, -187500.02, -0.004, -0.018, 0.986, 13:57:27.523, 1574276247523
157, -187500.02, 10003.28, 5092.38, -187500.02, -187500.02, 0.00, -187500.02, -187500.02, 0.000, 0.000, 0.000, 13:57:27.524, 1574276247524
158, -187500.02, 9971.74, 5058.07, -187500.02, -187500.02, 0.00, -187500.02, -187500.02, 0.000, 0.000, 0.000, 13:57:27.524, 1574276247524
159, -187500.02, 9964.45, 5079.19, -187500.02, -187500.02, 0.00, -187500.02, -187500.02, 0.000, 0.000, 0.000, 13:57:27.525, 1574276247525
160, -187500.02, 9974.06, 5115.78, -187500.02, -187500.02, 0.00, -187500.02, -187500.02, 0.000, 0.000, 0.000, 13:57:27.525, 1574276247525
161, -187500.02, 9958.19, 5106.57, -187500.02, -187500.02, 0.00, -187500.02, -187500.02, 0.000, 0.000, 0.000, 13:57:27.525, 1574276247525
162, -187500.02, 9918.65, 5065.33, -187500.02, -187500.02, 0.00, -187500.02, -187500.02, 0.000, 0.000, 0.000, 13:57:27.525, 1574276247525
163, -187500.02, 9912.86, 5077.44, -187500.02, -187500.02, 0.00, -187500.02, -187500.02, 0.000, 0.000, 0.000, 13:57:27.525, 1574276247525
164, -187500.02, 9923.06, 5090.52, -187500.02, -187500.02, 0.00, -187500.02, -187500.02, 0.000, 0.000, 0.000, 13:57:27.525, 1574276247525
165, -187500.02, 9901.46, 5080.73, -187500.02, -187500.02, 0.00, -187500.02, -187500.02, 0.000, 0.000, 0.000, 13:57:27.525, 1574276247525
166, -187500.02, 9891.14, 5071.28, -187500.02, -187500.02, 0.00, -187500.02, -187500.02, -0.004, -0.016, 0.990, 13:57:27.579, 1574276247579
167, -187500.02, 9915.03, 5114.59, -187500.02, -187500.02, 0.00, -187500.02, -187500.02, 0.000, 0.000, 0.000, 13:57:27.579, 1574276247579
168, -187500.02, 9908.84, 5113.36, -187500.02, -187500.02, 0.00, -187500.02, -187500.02, 0.000, 0.000, 0.000, 13:57:27.579, 1574276247579
169, -187500.02, 9898.11, 5094.12, -187500.02, -187500.02, 0.00, -187500.02, -187500.02, 0.000, 0.000, 0.000, 13:57:27.579, 1574276247579
170, -187500.02, 9896.66, 5089.29, -187500.02, -187500.02, 0.00, -187500.02, -187500.02, 0.000, 0.000, 0.000, 13:57:27.579, 1574276247579
171, -187500.02, 9888.66, 5064.15, -187500.02, -187500.02, 0.00, -187500.02, -187500.02, 0.000, 0.000, 0.000, 13:57:27.580, 1574276247580
172, -187500.02, 9929.29, 5089.47, -187500.02, -187500.02, 0.00, -187500.02, -187500.02, 0.000, 0.000, 0.000, 13:57:27.580, 1574276247580
173, -187500.02, 9941.70, 5108.09, -187500.02, -187500.02, 0.00, -187500.02, -187500.02, 0.000, 0.000, 0.000, 13:57:27.580, 1574276247580
174, -187500.02, 9904.15, 5065.53, -187500.02, -187500.02, 0.00, -187500.02, -187500.02, 0.000, 0.000, 0.000, 13:57:27.580, 1574276247580
175, -187500.02, 9919.95, 5066.18, -187500.02, -187500.02, 0.00, -187500.02, -187500.02, 0.000, 0.000, 0.000, 13:57:27.580, 1574276247580
176, -187500.02, 9941.59, 5114.17, -187500.02, -187500.02, 0.00, -187500.02, -187500.02, -0.004, -0.022, 0.984, 13:57:27.580, 1574276247580
177, -187500.02, 9942.68, 5086.90, -187500.02, -187500.02, 0.00, -187500.02, -187500.02, 0.000, 0.000, 0.000, 13:57:27.580, 1574276247580
178, -187500.02, 9959.29, 5072.46, -187500.02, -187500.02, 0.00, -187500.02, -187500.02, 0.000, 0.000, 0.000, 13:57:27.580, 1574276247580
179, -187500.02, 9950.46, 5095.88, -187500.02, -187500.02, 0.00, -187500.02, -187500.02, 0.000, 0.000, 0.000, 13:57:27.580, 1574276247580
180, -187500.02, 9952.99, 5106.35, -187500.02, -187500.02, 0.00, -187500.02, -187500.02, 0.000, 0.000, 0.000, 13:57:27.580, 1574276247580
181, -187500.02, 9931.24, 5063.09, -187500.02, -187500.02, 0.00, -187500.02, -187500.02, 0.000, 0.000, 0.000, 13:57:27.639, 1574276247639
182, -187500.02, 9954.01, 5053.64, -187500.02, -187500.02, 0.00, -187500.02, -187500.02, 0.000, 0.000, 0.000, 13:57:27.639, 1574276247639
183, -187500.02, 9972.74, 5045.21, -187500.02, -187500.02, 0.00, -187500.02, -187500.02, 0.000, 0.000, 0.000, 13:57:27.639, 1574276247639
184, -187500.02, 9988.70, 5101.88, -187500.02, -187500.02, 0.00, -187500.02, -187500.02, 0.000, 0.000, 0.000, 13:57:27.639, 1574276247639
185, -187500.02, 9989.13, 5139.52, -187500.02, -187500.02, 0.00, -187500.02, -187500.02, 0.000, 0.000, 0.000, 13:57:27.639, 1574276247639
186, -187500.02, 9971.98, 5094.66, -187500.02, -187500.02, 0.00, -187500.02, -187500.02, -0.006, -0.020, 0.988, 13:57:27.639, 1574276247639
187, -187500.02, 10003.41, 5051.56, -187500.02, -187500.02, 0.00, -187500.02, -187500.02, 0.000, 0.000, 0.000, 13:57:27.639, 1574276247639
188, -187500.02, 10022.59, 5103.55, -187500.02, -187500.02, 0.00, -187500.02, -187500.02, 0.000, 0.000, 0.000, 13:57:27.639, 1574276247639
189, -187500.02, 9985.55, 5134.22, -187500.02, -187500.02, 0.00, -187500.02, -187500.02, 0.000, 0.000, 0.000, 13:57:27.640, 1574276247640
190, -187500.02, 9951.69, 5089.47, -187500.02, -187500.02, 0.00, -187500.02, -187500.02, 0.000, 0.000, 0.000, 13:57:27.640, 1574276247640
191, -187500.02, 9956.83, 5034.42, -187500.02, -187500.02, 0.00, -187500.02, -187500.02, 0.000, 0.000, 0.000, 13:57:27.640, 1574276247640
192, -187500.02, 10003.43, 5064.86, -187500.02, -187500.02, 0.00, -187500.02, -187500.02, 0.000, 0.000, 0.000, 13:57:27.640, 1574276247640
193, -187500.02, 10023.39, 5097.20, -187500.02, -187500.02, 0.00, -187500.02, -187500.02, 0.000, 0.000, 0.000, 13:57:27.640, 1574276247640
194, -187500.02, 9995.52, 5070.90, -187500.02, -187500.02, 0.00, -187500.02, -187500.02, 0.000, 0.000, 0.000, 13:57:27.640, 1574276247640
195, -187500.02, 9989.58, 5120.23, -187500.02, -187500.02, 0.00, -187500.02, -187500.02, 0.000, 0.000, 0.000, 13:57:27.640, 1574276247640
196, -187500.02, 9990.25, 5115.93, -187500.02, -187500.02, 0.00, -187500.02, -187500.02, -0.004, -0.018, 0.990, 13:57:27.700, 1574276247700
197, -187500.02, 9940.78, 5016.80, -187500.02, -187500.02, 0.00, -187500.02, -187500.02, 0.000, 0.000, 0.000, 13:57:27.700, 1574276247700
198, -187500.02, 9959.71, 5032.05, -187500.02, -187500.02, 0.00, -187500.02, -187500.02, 0.000, 0.000, 0.000, 13:57:27.701, 1574276247701
199, -187500.02, 10011.30, 5115.89, -187500.02, -187500.02, 0.00, -187500.02, -187500.02, 0.000, 0.000, 0.000, 13:57:27.701, 1574276247701
200, -187500.02, 9995.16, 5116.56, -187500.02, -187500.02, 0.00, -187500.02, -187500.02, 0.000, 0.000, 0.000, 13:57:27.701, 1574276247701
201, -187500.02, 10009.42, 5125.21, -187500.02, -187500.02, 0.00, -187500.02, -187500.02, 0.000, 0.000, 0.000, 13:57:27.701, 1574276247701
202, -187500.02, 9988.50, 5116.60, -187500.02, -187500.02, 0.00, -187500.02, -187500.02, 0.000, 0.000, 0.000, 13:57:27.701, 1574276247701
203, -187500.02, 9971.16, 5128.47, -187500.02, -187500.02, 0.00, -187500.02, -187500.02, 0.000, 0.000, 0.000, 13:57:27.701, 1574276247701
204, -187500.02, 9967.96, 5107.64, -187500.02, -187500.02, 0.00, -187500.02, -187500.02, 0.000, 0.000, 0.000, 13:57:27.701, 1574276247701
205, -187500.02, 9922.03, 5014.81, -187500.02, -187500.02, 0.00, -187500.02, -187500.02, 0.000, 0.000, 0.000, 13:57:27.701, 1574276247701
206, -187500.02, 9967.89, 5067.12, -187500.02, -187500.02, 0.00, -187500.02, -187500.02, -0.006, -0.020, 0.994, 13:57:27.702, 1574276247702
207, -187500.02, 9998.92, 5152.79, -187500.02, -187500.02, 0.00, -187500.02, -187500.02, 0.000, 0.000, 0.000, 13:57:27.702, 1574276247702
208, -187500.02, 9968.72, 5123.00, -187500.02, -187500.02, 0.00, -187500.02, -187500.02, 0.000, 0.000, 0.000, 13:57:27.702, 1574276247702
209, -187500.02, 9976.50, 5105.45, -187500.02, -187500.02, 0.00, -187500.02, -187500.02, 0.000, 0.000, 0.000, 13:57:27.702, 1574276247702
210, -187500.02, 9980.92, 5119.89, -187500.02, -187500.02, 0.00, -187500.02, -187500.02, 0.000, 0.000, 0.000, 13:57:27.703, 1574276247703
211, -187500.02, 9963.83, 5120.87, -187500.02, -187500.02, 0.00, -187500.02, -187500.02, 0.000, 0.000, 0.000, 13:57:27.759, 1574276247759
212, -187500.02, 9952.58, 5103.82, -187500.02, -187500.02, 0.00, -187500.02, -187500.02, 0.000, 0.000, 0.000, 13:57:27.760, 1574276247760
213, -187500.02, 9930.21, 5061.15, -187500.02, -187500.02, 0.00, -187500.02, -187500.02, 0.000, 0.000, 0.000, 13:57:27.760, 1574276247760
214, -187500.02, 9934.32, 5041.08, -187500.02, -187500.02, 0.00, -187500.02, -187500.02, 0.000, 0.000, 0.000, 13:57:27.760, 1574276247760
215, -187500.02, 9969.17, 5117.34, -187500.02, -187500.02, 0.00, -187500.02, -187500.02, 0.000, 0.000, 0.000, 13:57:27.760, 1574276247760
216, -187500.02, 9959.47, 5135.47, -187500.02, -187500.02, 0.00, -187500.02, -187500.02, -0.002, -0.016, 0.996, 13:57:27.761, 1574276247761
217, -187500.02, 9940.94, 5094.28, -187500.02, -187500.02, 0.00, -187500.02, -187500.02, 0.000, 0.000, 0.000, 13:57:27.761, 1574276247761
218, -187500.02, 9949.32, 5087.32, -187500.02, -187500.02, 0.00, -187500.02, -187500.02, 0.000, 0.000, 0.000, 13:57:27.762, 1574276247762
219, -187500.02, 9960.00, 5122.77, -187500.02, -187500.02, 0.00, -187500.02, -187500.02, 0.000, 0.000, 0.000, 13:57:27.762, 1574276247762
220, -187500.02, 9950.46, 5098.37, -187500.02, -187500.02, 0.00, -187500.02, -187500.02, 0.000, 0.000, 0.000, 13:57:27.763, 1574276247763
221, -187500.02, 9933.83, 5065.31, -187500.02, -187500.02, 0.00, -187500.02, -187500.02, 0.000, 0.000, 0.000, 13:57:27.763, 1574276247763
222, -187500.02, 9946.50, 5099.75, -187500.02, -187500.02, 0.00, -187500.02, -187500.02, 0.000, 0.000, 0.000, 13:57:27.763, 1574276247763
223, -187500.02, 9983.43, 5140.21, -187500.02, -187500.02, 0.00, -187500.02, -187500.02, 0.000, 0.000, 0.000, 13:57:27.763, 1574276247763
224, -187500.02, 9983.94, 5129.99, -187500.02, -187500.02, 0.00, -187500.02, -187500.02, 0.000, 0.000, 0.000, 13:57:27.763, 1574276247763
225, -187500.02, 9957.61, 5115.98, -187500.02, -187500.02, 0.00, -187500.02, -187500.02, 0.000, 0.000, 0.000, 13:57:27.763, 1574276247763
226, -187500.02, 9948.56, 5106.32, -187500.02, -187500.02, 0.00, -187500.02, -187500.02, -0.002, -0.016, 0.990, 13:57:27.819, 1574276247819
227, -187500.02, 9942.66, 5099.91, -187500.02, -187500.02, 0.00, -187500.02, -187500.02, 0.000, 0.000, 0.000, 13:57:27.820, 1574276247820
228, -187500.02, 9944.69, 5080.71, -187500.02, -187500.02, 0.00, -187500.02, -187500.02, 0.000, 0.000, 0.000, 13:57:27.820, 1574276247820
229, -187500.02, 9971.63, 5116.40, -187500.02, -187500.02, 0.00, -187500.02, -187500.02, 0.000, 0.000, 0.000, 13:57:27.821, 1574276247821
230, -187500.02, 9972.99, 5122.89, -187500.02, -187500.02, 0.00, -187500.02, -187500.02, 0.000, 0.000, 0.000, 13:57:27.821, 1574276247821
231, -187500.02, 9962.04, 5100.02, -187500.02, -187500.02, 0.00, -187500.02, -187500.02, 0.000, 0.000, 0.000, 13:57:27.821, 1574276247821
232, -187500.02, 9944.87, 5068.95, -187500.02, -187500.02, 0.00, -187500.02, -187500.02, 0.000, 0.000, 0.000, 13:57:27.821, 1574276247821
233, -187500.02, 9967.89, 5102.48, -187500.02, -187500.02, 0.00, -187500.02, -187500.02, 0.000, 0.000, 0.000, 13:57:27.821, 1574276247821
234, -187500.02, 9991.92, 5122.30, -187500.02, -187500.02, 0.00, -187500.02, -187500.02, 0.000, 0.000, 0.000, 13:57:27.821, 1574276247821
235, -187500.02, 9978.18, 5111.37, -187500.02, -187500.02, 0.00, -187500.02, -187500.02, 0.000, 0.000, 0.000, 13:57:27.822, 1574276247822
236, -187500.02, 9956.61, 5083.41, -187500.02, -187500.02, 0.00, -187500.02, -187500.02, 0.000, -0.018, 0.990, 13:57:27.822, 1574276247822
237, -187500.02, 9983.65, 5107.24, -187500.02, -187500.02, 0.00, -187500.02, -187500.02, 0.000, 0.000, 0.000, 13:57:27.822, 1574276247822
238, -187500.02, 10012.84, 5129.79, -187500.02, -187500.02, 0.00, -187500.02, -187500.02, 0.000, 0.000, 0.000, 13:57:27.823, 1574276247823
239, -187500.02, 10006.92, 5135.96, -187500.02, -187500.02, 0.00, -187500.02, -187500.02, 0.000, 0.000, 0.000, 13:57:27.823, 1574276247823
240, -187500.02, 9996.35, 5125.46, -187500.02, -187500.02, 0.00, -187500.02, -187500.02, 0.000, 0.000, 0.000, 13:57:27.824, 1574276247824
241, -187500.02, 10002.29, 5119.09, -187500.02, -187500.02, 0.00, -187500.02, -187500.02, 0.000, 0.000, 0.000, 13:57:27.879, 1574276247879
242, -187500.02, 10008.28, 5119.51, -187500.02, -187500.02, 0.00, -187500.02, -187500.02, 0.000, 0.000, 0.000, 13:57:27.879, 1574276247879
243, -187500.02, 10009.71, 5114.70, -187500.02, -187500.02, 0.00, -187500.02, -187500.02, 0.000, 0.000, 0.000, 13:57:27.879, 1574276247879
244, -187500.02, 10009.85, 5107.87, -187500.02, -187500.02, 0.00, -187500.02, -187500.02, 0.000, 0.000, 0.000, 13:57:27.879, 1574276247879
245, -187500.02, 10012.51, 5097.90, -187500.02, -187500.02, 0.00, -187500.02, -187500.02, 0.000, 0.000, 0.000, 13:57:27.879, 1574276247879
246, -187500.02, 10023.06, 5105.21, -187500.02, -187500.02, 0.00, -187500.02, -187500.02, -0.002, -0.022, 0.994, 13:57:27.879, 1574276247879
247, -187500.02, 10017.09, 5106.66, -187500.02, -187500.02, 0.00, -187500.02, -187500.02, 0.000, 0.000, 0.000, 13:57:27.879, 1574276247879
248, -187500.02, 10016.11, 5098.72, -187500.02, -187500.02, 0.00, -187500.02, -187500.02, 0.000, 0.000, 0.000, 13:57:27.880, 1574276247880
249, -187500.02, 10039.87, 5109.85, -187500.02, -187500.02, 0.00, -187500.02, -187500.02, 0.000, 0.000, 0.000, 13:57:27.880, 1574276247880
250, -187500.02, 10048.52, 5110.64, -187500.02, -187500.02, 0.00, -187500.02, -187500.02, 0.000, 0.000, 0.000, 13:57:27.880, 1574276247880
251, -187500.02, 10047.29, 5094.77, -187500.02, -187500.02, 0.00, -187500.02, -187500.02, 0.000, 0.000, 0.000, 13:57:27.880, 1574276247880
252, -187500.02, 10054.19, 5093.16, -187500.02, -187500.02, 0.00, -187500.02, -187500.02, 0.000, 0.000, 0.000, 13:57:27.880, 1574276247880
253, -187500.02, 10065.26, 5119.31, -187500.02, -187500.02, 0.00, -187500.02, -187500.02, 0.000, 0.000, 0.000, 13:57:27.880, 1574276247880
254, -187500.02, 10072.70, 5125.90, -187500.02, -187500.02, 0.00, -187500.02, -187500.02, 0.000, 0.000, 0.000, 13:57:27.881, 1574276247881
255, -187500.02, 10071.92, 5117.61, -187500.02, -187500.02, 0.00, -187500.02, -187500.02, 0.000, 0.000, 0.000, 13:57:27.881, 1574276247881
0, -187500.02, 10091.90, 5128.70, -187500.02, -187500.02, 0.00, -187500.02, -187500.02, 0.000, -0.020, 0.994, 13:57:27.938, 1574276247938
1, -187500.02, 10096.04, 5136.86, -187500.02, -187500.02, 0.00, -187500.02, -187500.02, 0.000, 0.000, 0.000, 13:57:27.939, 1574276247939
2, -187500.02, 10090.65, 5126.75, -187500.02, -187500.02, 0.00, -187500.02, -187500.02, 0.000, 0.000, 0.000, 13:57:27.939, 1574276247939
3, -187500.02, 10081.84, 5115.17, -187500.02, -187500.02, 0.00, -187500.02, -187500.02, 0.000, 0.000, 0.000, 13:57:27.939, 1574276247939
4, -187500.02, 10084.24, 5109.21, -187500.02, -187500.02, 0.00, -187500.02, -187500.02, 0.000, 0.000, 0.000, 13:57:27.939, 1574276247939
5, -187500.02, 10092.66, 5105.65, -187500.02, -187500.02, 0.00, -187500.02, -187500.02, 0.000, 0.000, 0.000, 13:57:27.939, 1574276247939
6, -187500.02, 10092.80, 5092.55, -187500.02, -187500.02, 0.00, -187500.02, -187500.02, 0.000, 0.000, 0.000, 13:57:27.939, 1574276247939
7, -187500.02, 10083.94, 5062.31, -187500.02, -187500.02, 0.00, -187500.02, -187500.02, 0.000, 0.000, 0.000, 13:57:27.939, 1574276247939
8, -187500.02, 10105.29, 5075.72, -187500.02, -187500.02, 0.00, -187500.02, -187500.02, 0.000, 0.000, 0.000, 13:57:27.939, 1574276247939
9, -187500.02, 10137.16, 5125.46, -187500.02, -187500.02, 0.00, -187500.02, -187500.02, 0.000, 0.000, 0.000, 13:57:27.940, 1574276247940
10, -187500.02, 10138.62, 5136.68, -187500.02, -187500.02, 0.00, -187500.02, -187500.02, -0.002, -0.022, 0.990, 13:57:27.940, 1574276247940
11, -187500.02, 10135.26, 5124.18, -187500.02, -187500.02, 0.00, -187500.02, -187500.02, 0.000, 0.000, 0.000, 13:57:27.940, 1574276247940
12, -187500.02, 10126.88, 5102.86, -187500.02, -187500.02, 0.00, -187500.02, -187500.02, 0.000, 0.000, 0.000, 13:57:27.940, 1574276247940
13, -187500.02, 10107.30, 5077.44, -187500.02, -187500.02, 0.00, -187500.02, -187500.02, 0.000, 0.000, 0.000, 13:57:27.940, 1574276247940
14, -187500.02, 10149.66, 5111.08, -187500.02, -187500.02, 0.00, -187500.02, -187500.02, 0.000, 0.000, 0.000, 13:57:27.940, 1574276247940
15, -187500.02, 10172.30, 5155.23, -187500.02, -187500.02, 0.00, -187500.02, -187500.02, 0.000, 0.000, 0.000, 13:57:27.999, 1574276247999
16, -187500.02, 10164.30, 5144.21, -187500.02, -187500.02, 0.00, -187500.02, -187500.02, 0.000, 0.000, 0.000, 13:57:27.999, 1574276247999
17, -187500.02, 10157.73, 5124.38, -187500.02, -187500.02, 0.00, -187500.02, -187500.02, 0.000, 0.000, 0.000, 13:57:28.000, 1574276248000
18, -187500.02, 10162.42, 5116.18, -187500.02, -187500.02, 0.00, -187500.02, -187500.02, 0.000, 0.000, 0.000, 13:57:28.000, 1574276248000
19, -187500.02, 10170.33, 5111.80, -187500.02, -187500.02, 0.00, -187500.02, -187500.02, 0.000, 0.000, 0.000, 13:57:28.002, 1574276248002
20, -187500.02, 10172.99, 5109.59, -187500.02, -187500.02, 0.00, -187500.02, -187500.02, -0.004, -0.028, 0.994, 13:57:28.002, 1574276248002
21, -187500.02, 10174.98, 5104.33, -187500.02, -187500.02, 0.00, -187500.02, -187500.02, 0.000, 0.000, 0.000, 13:57:28.003, 1574276248003
22, -187500.02, 10172.08, 5101.32, -187500.02, -187500.02, 0.00, -187500.02, -187500.02, 0.000, 0.000, 0.000, 13:57:28.003, 1574276248003
23, -187500.02, 10178.22, 5101.43, -187500.02, -187500.02, 0.00, -187500.02, -187500.02, 0.000, 0.000, 0.000, 13:57:28.003, 1574276248003
24, -187500.02, 10185.31, 5098.81, -187500.02, -187500.02, 0.00, -187500.02, -187500.02, 0.000, 0.000, 0.000, 13:57:28.003, 1574276248003
25, -187500.02, 10190.63, 5103.89, -187500.02, -187500.02, 0.00, -187500.02, -187500.02, 0.000, 0.000, 0.000, 13:57:28.003, 1574276248003
26, -187500.02, 10201.31, 5111.62, -187500.02, -187500.02, 0.00, -187500.02, -187500.02, 0.000, 0.000, 0.000, 13:57:28.003, 1574276248003
27, -187500.02, 10202.30, 5107.06, -187500.02, -187500.02, 0.00, -187500.02, -187500.02, 0.000, 0.000, 0.000, 13:57:28.003, 1574276248003
28, -187500.02, 10211.13, 5104.22, -187500.02, -187500.02, 0.00, -187500.02, -187500.02, 0.000, 0.000, 0.000, 13:57:28.003, 1574276248003
29, -187500.02, 10210.41, 5107.89, -187500.02, -187500.02, 0.00, -187500.02, -187500.02, -0.004, -0.022, 0.990, 13:57:28.004, 1574276248004
30, -187500.02, 10215.93, 5112.54, -187500.02, -187500.02, 0.00, -187500.02, -187500.02, 0.000, 0.000, 0.000, 13:57:28.061, 1574276248061
31, -187500.02, 10218.88, 5108.40, -187500.02, -187500.02, 0.00, -187500.02, -187500.02, 0.000, 0.000, 0.000, 13:57:28.062, 1574276248062
32, -187500.02, 10225.03, 5105.76, -187500.02, -187500.02, 0.00, -187500.02, -187500.02, 0.000, 0.000, 0.000, 13:57:28.062, 1574276248062
33, -187500.02, 10232.52, 5106.05, -187500.02, -187500.02, 0.00, -187500.02, -187500.02, 0.000, 0.000, 0.000, 13:57:28.063, 1574276248063
34, -187500.02, 10236.34, 5105.50, -187500.02, -187500.02, 0.00, -187500.02, -187500.02, 0.000, 0.000, 0.000, 13:57:28.064, 1574276248064
35, -187500.02, 10240.85, 5100.69, -187500.02, -187500.02, 0.00, -187500.02, -187500.02, 0.000, 0.000, 0.000, 13:57:28.064, 1574276248064
36, -187500.02, 10246.69, 5104.94, -187500.02, -187500.02, 0.00, -187500.02, -187500.02, 0.000, 0.000, 0.000, 13:57:28.064, 1574276248064
37, -187500.02, 10250.49, 5101.88, -187500.02, -187500.02, 0.00, -187500.02, -187500.02, 0.000, 0.000, 0.000, 13:57:28.064, 1574276248064
38, -187500.02, 10253.10, 5097.40, -187500.02, -187500.02, 0.00, -187500.02, -187500.02, 0.000, 0.000, 0.000, 13:57:28.065, 1574276248065
39, -187500.02, 10266.96, 5104.38, -187500.02, -187500.02, 0.00, -187500.02, -187500.02, -0.004, -0.024, 0.990, 13:57:28.065, 1574276248065
40, -187500.02, 10274.11, 5107.95, -187500.02, -187500.02, 0.00, -187500.02, -187500.02, 0.000, 0.000, 0.000, 13:57:28.065, 1574276248065
41, -187500.02, 10272.37, 5099.80, -187500.02, -187500.02, 0.00, -187500.02, -187500.02, 0.000, 0.000, 0.000, 13:57:28.065, 1574276248065
42, -187500.02, 10270.83, 5088.42, -187500.02, -187500.02, 0.00, -187500.02, -187500.02, 0.000, 0.000, 0.000, 13:57:28.065, 1574276248065
43, -187500.02, 10286.18, 5099.64, -187500.02, -187500.02, 0.00, -187500.02, -187500.02, 0.000, 0.000, 0.000, 13:57:28.065, 1574276248065
44, -187500.02, 10300.78, 5107.04, -187500.02, -187500.02, 0.00, -187500.02, -187500.02, 0.000, 0.000, 0.000, 13:57:28.065, 1574276248065
45, -187500.02, 10305.34, 5101.58, -187500.02, -187500.02, 0.00, -187500.02, -187500.02, 0.000, 0.000, 0.000, 13:57:28.119, 1574276248119
46, -187500.02, 10305.25, 5094.72, -187500.02, -187500.02, 0.00, -187500.02, -187500.02, 0.000, 0.000, 0.000, 13:57:28.119, 1574276248119
47, -187500.02, 10308.87, 5093.27, -187500.02, -187500.02, 0.00, -187500.02, -187500.02, 0.000, 0.000, 0.000, 13:57:28.119, 1574276248119
48, -187500.02, 10315.78, 5092.60, -187500.02, -187500.02, 0.00, -187500.02, -187500.02, 0.000, 0.000, 0.000, 13:57:28.119, 1574276248119
49, -187500.02, 10316.40, 5089.58, -187500.02, -187500.02, 0.00, -187500.02, -187500.02, -0.006, -0.020, 0.992, 13:57:28.119, 1574276248119
50, -187500.02, 10317.99, 5086.43, -187500.02, -187500.02, 0.00, -187500.02, -187500.02, 0.000, 0.000, 0.000, 13:57:28.119, 1574276248119
51, -187500.02, 10325.28, 5092.31, -187500.02, -187500.02, 0.00, -187500.02, -187500.02, 0.000, 0.000, 0.000, 13:57:28.119, 1574276248119
52, -187500.02, 10336.70, 5097.96, -187500.02, -187500.02, 0.00, -187500.02, -187500.02, 0.000, 0.000, 0.000, 13:57:28.120, 1574276248120
53, -187500.02, 10347.92, 5105.61, -187500.02, -187500.02, 0.00, -187500.02, -187500.02, 0.000, 0.000, 0.000, 13:57:28.120, 1574276248120
54, -187500.02, 10350.78, 5100.96, -187500.02, -187500.02, 0.00, -187500.02, -187500.02, 0.000, 0.000, 0.000, 13:57:28.120, 1574276248120
55, -187500.02, 10351.47, 5096.15, -187500.02, -187500.02, 0.00, -187500.02, -187500.02, 0.000, 0.000, 0.000, 13:57:28.120, 1574276248120
56, -187500.02, 10356.64, 5089.34, -187500.02, -187500.02, 0.00, -187500.02, -187500.02, 0.000, 0.000, 0.000, 13:57:28.120, 1574276248120
57, -187500.02, 10361.11, 5091.93, -187500.02, -187500.02, 0.00, -187500.02, -187500.02, 0.000, 0.000, 0.000, 13:57:28.120, 1574276248120
58, -187500.02, 10366.13, 5088.40, -187500.02, -187500.02, 0.00, -187500.02, -187500.02, 0.000, 0.000, 0.000, 13:57:28.120, 1574276248120
59, -187500.02, 10372.66, 5086.77, -187500.02, -187500.02, 0.00, -187500.02, -187500.02, -0.002, -0.020, 0.986, 13:57:28.120, 1574276248120
60, -187500.02, 10381.18, 5087.08, -187500.02, -187500.02, 0.00, -187500.02, -187500.02, 0.000, 0.000, 0.000, 13:57:28.180, 1574276248180
61, -187500.02, 10379.17, 5090.61, -187500.02, -187500.02, 0.00, -187500.02, -187500.02, 0.000, 0.000, 0.000, 13:57:28.181, 1574276248181
62, -187500.02, 10385.04, 5092.04, -187500.02, -187500.02, 0.00, -187500.02, -187500.02, 0.000, 0.000, 0.000, 13:57:28.182, 1574276248182
63, -187500.02, 10387.32, 5096.78, -187500.02, -187500.02, 0.00, -187500.02, -187500.02, 0.000, 0.000, 0.000, 13:57:28.183, 1574276248183
64, -187500.02, 10385.20, 5100.85, -187500.02, -187500.02, 0.00, -187500.02, -187500.02, 0.000, 0.000, 0.000, 13:57:28.183, 1574276248183
65, -187500.02, 10394.86, 5101.67, -187500.02, -187500.02, 0.00, -187500.02, -187500.02, 0.000, 0.000, 0.000, 13:57:28.184, 1574276248184
66, -187500.02, 10399.22, 5105.16, -187500.02, -187500.02, 0.00, -187500.02, -187500.02, 0.000, 0.000, 0.000, 13:57:28.184, 1574276248184
67, -187500.02, 10396.31, 5103.71, -187500.02, -187500.02, 0.00, -187500.02, -187500.02, 0.000, 0.000, 0.000, 13:57:28.184, 1574276248184
68, -187500.02, 10395.89, 5106.46, -187500.02, -187500.02, 0.00, -187500.02, -187500.02, 0.000, 0.000, 0.000, 13:57:28.185, 1574276248185
69, -187500.02, 10383.93, 5116.94, -187500.02, -187500.02, 0.00, -187500.02, -187500.02, 0.002, -0.022, 0.984, 13:57:28.185, 1574276248185
70, -187500.02, 10377.89, 5116.16, -187500.02, -187500.02, 0.00, -187500.02, -187500.02, 0.000, 0.000, 0.000, 13:57:28.185, 1574276248185
71, -187500.02, 10369.60, 5142.40, -187500.02, -187500.02, 0.00, -187500.02, -187500.02, 0.000, 0.000, 0.000, 13:57:28.186, 1574276248186
72, -187500.02, 10356.64, 5164.77, -187500.02, -187500.02, 0.00, -187500.02, -187500.02, 0.000, 0.000, 0.000, 13:57:28.186, 1574276248186
73, -187500.02, 10352.28, 5180.69, -187500.02, -187500.02, 0.00, -187500.02, -187500.02, 0.000, 0.000, 0.000, 13:57:28.186, 1574276248186
74, -187500.02, 10350.00, 5193.05, -187500.02, -187500.02, 0.00, -187500.02, -187500.02, 0.000, 0.000, 0.000, 13:57:28.187, 1574276248187
75, -187500.02, 10343.72, 5201.90, -187500.02, -187500.02, 0.00, -187500.02, -187500.02, 0.000, 0.000, 0.000, 13:57:28.239, 1574276248239
76, -187500.02, 10343.14, 5207.46, -187500.02, -187500.02, 0.00, -187500.02, -187500.02, 0.000, 0.000, 0.000, 13:57:28.240, 1574276248240
77, -187500.02, 10330.66, 5219.51, -187500.02, -187500.02, 0.00, -187500.02, -187500.02, 0.000, 0.000, 0.000, 13:57:28.240, 1574276248240
78, -187500.02, 10331.62, 5224.30, -187500.02, -187500.02, 0.00, -187500.02, -187500.02, 0.000, 0.000, 0.000, 13:57:28.241, 1574276248241
79, -187500.02, 10329.88, 5244.68, -187500.02, -187500.02, 0.00, -187500.02, -187500.02, 0.002, -0.016, 0.984, 13:57:28.241, 1574276248241
80, -187500.02, 10334.08, 5253.51, -187500.02, -187500.02, 0.00, -187500.02, -187500.02, 0.000, 0.000, 0.000, 13:57:28.241, 1574276248241
81, -187500.02, 10334.22, 5258.31, -187500.02, -187500.02, 0.00, -187500.02, -187500.02, 0.000, 0.000, 0.000, 13:57:28.242, 1574276248242
82, -187500.02, 10321.32, 5287.35, -187500.02, -187500.02, 0.00, -187500.02, -187500.02, 0.000, 0.000, 0.000, 13:57:28.242, 1574276248242
83, -187500.02, 10330.93, 5291.95, -187500.02, -187500.02, 0.00, -187500.02, -187500.02, 0.000, 0.000, 0.000, 13:57:28.242, 1574276248242
84, -187500.02, 10351.96, 5279.82, -187500.02, -187500.02, 0.00, -187500.02, -187500.02, 0.000, 0.000, 0.000, 13:57:28.243, 1574276248243
85, -187500.02, 10364.30, 5260.71, -187500.02, -187500.02, 0.00, -187500.02, -187500.02, 0.000, 0.000, 0.000, 13:57:28.243, 1574276248243
86, -187500.02, 10375.81, 5248.93, -187500.02, -187500.02, 0.00, -187500.02, -187500.02, 0.000, 0.000, 0.000, 13:57:28.243, 1574276248243
87, -187500.02, 10401.58, 5230.82, -187500.02, -187500.02, 0.00, -187500.02, -187500.02, 0.000, 0.000, 0.000, 13:57:28.244, 1574276248244
88, -187500.02, 10415.11, 5245.22, -187500.02, -187500.02, 0.00, -187500.02, -187500.02, 0.000, 0.000, 0.000, 13:57:28.244, 1574276248244
89, -187500.02, 10421.84, 5250.67, -187500.02, -187500.02, 0.00, -187500.02, -187500.02, 0.000, -0.016, 0.984, 13:57:28.244, 1574276248244
90, -187500.02, 10428.88, 5214.42, -187500.02, -187500.02, 0.00, -187500.02, -187500.02, 0.000, 0.000, 0.000, 13:57:28.300, 1574276248300
91, -187500.02, 10446.74, 5214.24, -187500.02, -187500.02, 0.00, -187500.02, -187500.02, 0.000, 0.000, 0.000, 13:57:28.301, 1574276248301
92, -187500.02, 10443.61, 5217.93, -187500.02, -187500.02, 0.00, -187500.02, -187500.02, 0.000, 0.000, 0.000, 13:57:28.302, 1574276248302
93, -187500.02, 10453.53, 5188.62, -187500.02, -187500.02, 0.00, -187500.02, -187500.02, 0.000, 0.000, 0.000, 13:57:28.303, 1574276248303
94, -187500.02, 10466.90, 5167.92, -187500.02, -187500.02, 0.00, -187500.02, -187500.02, 0.000, 0.000, 0.000, 13:57:28.303, 1574276248303
95, -187500.02, 10475.17, 5163.21, -187500.02, -187500.02, 0.00, -187500.02, -187500.02, 0.000, 0.000, 0.000, 13:57:28.303, 1574276248303
96, -187500.02, 10479.88, 5145.44, -187500.02, -187500.02, 0.00, -187500.02, -187500.02, 0.000, 0.000, 0.000, 13:57:28.304, 1574276248304
97, -187500.02, 10490.19, 5139.67, -187500.02, -187500.02, 0.00, -187500.02, -187500.02, 0.000, 0.000, 0.000, 13:57:28.306, 1574276248306
98, -187500.02, 10505.34, 5123.60, -187500.02, -187500.02, 0.00, -187500.02, -187500.02, 0.000, 0.000, 0.000, 13:57:28.307, 1574276248307
99, -187500.02, 10510.82, 5121.25, -187500.02, -187500.02, 0.00, -187500.02, -187500.02, 0.000, -0.016, 0.984, 13:57:28.308, 1574276248308
100, -187500.02, 10520.76, 5108.69, -187500.02, -187500.02, 0.00, -187500.02, -187500.02, 0.000, 0.000, 0.000, 13:57:28.308, 1574276248308
101, -187500.02, 10524.94, 5097.29, -187500.02, -187500.02, 0.00, -187500.02, -187500.02, 0.000, 0.000, 0.000, 13:57:28.308, 1574276248308
102, -187500.02, 10539.03, 5089.67, -187500.02, -187500.02, 0.00, -187500.02, -187500.02, 0.000, 0.000, 0.000, 13:57:28.308, 1574276248308
103, -187500.02, 10547.14, 5080.13, -187500.02, -187500.02, 0.00, -187500.02, -187500.02, 0.000, 0.000, 0.000, 13:57:28.308, 1574276248308
104, -187500.02, 10550.47, 5073.02, -187500.02, -187500.02, 0.00, -187500.02, -187500.02, 0.000, 0.000, 0.000, 13:57:28.309, 1574276248309
105, -187500.02, 10558.16, 5068.68, -187500.02, -187500.02, 0.00, -187500.02, -187500.02, 0.000, 0.000, 0.000, 13:57:28.359, 1574276248359
106, -187500.02, 10569.49, 5062.85, -187500.02, -187500.02, 0.00, -187500.02, -187500.02, 0.000, 0.000, 0.000, 13:57:28.359, 1574276248359
107, -187500.02, 10577.27, 5051.54, -187500.02, -187500.02, 0.00, -187500.02, -187500.02, 0.000, 0.000, 0.000, 13:57:28.359, 1574276248359
108, -187500.02, 10582.61, 5040.90, -187500.02, -187500.02, 0.00, -187500.02, -187500.02, 0.000, 0.000, 0.000, 13:57:28.359, 1574276248359
109, -187500.02, 10592.49, 5032.00, -187500.02, -187500.02, 0.00, -187500.02, -187500.02, 0.006, -0.020, 0.990, 13:57:28.359, 1574276248359
110, -187500.02, 10603.42, 5026.55, -187500.02, -187500.02, 0.00, -187500.02, -187500.02, 0.000, 0.000, 0.000, 13:57:28.359, 1574276248359
111, -187500.02, 10606.44, 5021.12, -187500.02, -187500.02, 0.00, -187500.02, -187500.02, 0.000, 0.000, 0.000, 13:57:28.359, 1574276248359
112, -187500.02, 10607.62, 5009.72, -187500.02, -187500.02, 0.00, -187500.02, -187500.02, 0.000, 0.000, 0.000, 13:57:28.359, 1574276248359
113, -187500.02, 10604.74, 5014.46, -187500.02, -187500.02, 0.00, -187500.02, -187500.02, 0.000, 0.000, 0.000, 13:57:28.360, 1574276248360
114, -187500.02, 10607.15, 5005.76, -187500.02, -187500.02, 0.00, -187500.02, -187500.02, 0.000, 0.000, 0.000, 13:57:28.360, 1574276248360
115, -187500.02, 10612.03, 4981.22, -187500.02, -187500.02, 0.00, -187500.02, -187500.02, 0.000, 0.000, 0.000, 13:57:28.360, 1574276248360
116, -187500.02, 10608.27, 4981.78, -187500.02, -187500.02, 0.00, -187500.02, -187500.02, 0.000, 0.000, 0.000, 13:57:28.360, 1574276248360
117, -187500.02, 10609.21, 4990.12, -187500.02, -187500.02, 0.00, -187500.02, -187500.02, 0.000, 0.000, 0.000, 13:57:28.360, 1574276248360
118, -187500.02, 10619.04, 4990.25, -187500.02, -187500.02, 0.00, -187500.02, -187500.02, 0.000, 0.000, 0.000, 13:57:28.360, 1574276248360
119, -187500.02, 10626.11, 4988.48, -187500.02, -187500.02, 0.00, -187500.02, -187500.02, 0.000, -0.018, 0.990, 13:57:28.360, 1574276248360
120, -187500.02, 10640.23, 4959.72, -187500.02, -187500.02, 0.00, -187500.02, -187500.02, 0.000, 0.000, 0.000, 13:57:28.421, 1574276248421
121, -187500.02, 10648.71, 4947.36, -187500.02, -187500.02, 0.00, -187500.02, -187500.02, 0.000, 0.000, 0.000, 13:57:28.422, 1574276248422
122, -187500.02, 10652.33, 4934.50, -187500.02, -187500.02, 0.00, -187500.02, -187500.02, 0.000, 0.000, 0.000, 13:57:28.423, 1574276248423
123, -187500.02, 10647.57, 4943.29, -187500.02, -187500.02, 0.00, -187500.02, -187500.02, 0.000, 0.000, 0.000, 13:57:28.424, 1574276248424
124, -187500.02, 10647.75, 4941.23, -187500.02, -187500.02, 0.00, -187500.02, -187500.02, 0.000, 0.000, 0.000, 13:57:28.425, 1574276248425
125, -187500.02, 10648.82, 4956.14, -187500.02, -187500.02, 0.00, -187500.02, -187500.02, 0.000, 0.000, 0.000, 13:57:28.425, 1574276248425
126, -187500.02, 10660.91, 4941.61, -187500.02, -187500.02, 0.00, -187500.02, -187500.02, 0.000, 0.000, 0.000, 13:57:28.425, 1574276248425
127, -187500.02, 10660.73, 4936.45, -187500.02, -187500.02, 0.00, -187500.02, -187500.02, 0.000, 0.000, 0.000, 13:57:28.425, 1574276248425
128, -187500.02, 10658.05, 4928.05, -187500.02, -187500.02, 0.00, -187500.02, -187500.02, 0.000, 0.000, 0.000, 13:57:28.425, 1574276248425
129, -187500.02, 10660.51, 4910.66, -187500.02, -187500.02, 0.00, -187500.02, -187500.02, 0.000, -0.014, 0.992, 13:57:28.425, 1574276248425
130, -187500.02, 10670.95, 4904.40, -187500.02, -187500.02, 0.00, -187500.02, -187500.02, 0.000, 0.000, 0.000, 13:57:28.425, 1574276248425
131, -187500.02, 10674.10, 4897.47, -187500.02, -187500.02, 0.00, -187500.02, -187500.02, 0.000, 0.000, 0.000, 13:57:28.425, 1574276248425
132, -187500.02, 10673.16, 4909.27, -187500.02, -187500.02, 0.00, -187500.02, -187500.02, 0.000, 0.000, 0.000, 13:57:28.425, 1574276248425
133, -187500.02, 10676.24, 4905.63, -187500.02, -187500.02, 0.00, -187500.02, -187500.02, 0.000, 0.000, 0.000, 13:57:28.426, 1574276248426
134, -187500.02, 10684.38, 4891.10, -187500.02, -187500.02, 0.00, -187500.02, -187500.02, 0.000, 0.000, 0.000, 13:57:28.426, 1574276248426
135, -187500.02, 10687.96, 4893.76, -187500.02, -187500.02, 0.00, -187500.02, -187500.02, 0.000, 0.000, 0.000, 13:57:28.479, 1574276248479
136, -187500.02, 10687.78, 4879.81, -187500.02, -187500.02, 0.00, -187500.02, -187500.02, 0.000, 0.000, 0.000, 13:57:28.480, 1574276248480
137, -187500.02, 10692.81, 4871.18, -187500.02, -187500.02, 0.00, -187500.02, -187500.02, 0.000, 0.000, 0.000, 13:57:28.480, 1574276248480
138, -187500.02, 10687.78, 4881.98, -187500.02, -187500.02, 0.00, -187500.02, -187500.02, 0.000, 0.000, 0.000, 13:57:28.480, 1574276248480
139, -187500.02, 10691.49, 4879.36, -187500.02, -187500.02, 0.00, -187500.02, -187500.02, 0.002, -0.020, 0.990, 13:57:28.481, 1574276248481
140, -187500.02, 10694.86, 4880.91, -187500.02, -187500.02, 0.00, -187500.02, -187500.02, 0.000, 0.000, 0.000, 13:57:28.481, 1574276248481
141, -187500.02, 10694.37, 4865.28, -187500.02, -187500.02, 0.00, -187500.02, -187500.02, 0.000, 0.000, 0.000, 13:57:28.481, 1574276248481
142, -187500.02, 10697.01, 4869.19, -187500.02, -187500.02, 0.00, -187500.02, -187500.02, 0.000, 0.000, 0.000, 13:57:28.482, 1574276248482
143, -187500.02, 10703.11, 4861.28, -187500.02, -187500.02, 0.00, -187500.02, -187500.02, 0.000, 0.000, 0.000, 13:57:28.483, 1574276248483
144, -187500.02, 10706.51, 4847.20, -187500.02, -187500.02, 0.00, -187500.02, -187500.02, 0.000, 0.000, 0.000, 13:57:28.484, 1574276248484
145, -187500.02, 10710.82, 4846.82, -187500.02, -187500.02, 0.00, -187500.02, -187500.02, 0.000, 0.000, 0.000, 13:57:28.484, 1574276248484
146, -187500.02, 10708.90, 4850.66, -187500.02, -187500.02, 0.00, -187500.02, -187500.02, 0.000, 0.000, 0.000, 13:57:28.485, 1574276248485
147, -187500.02, 10711.31, 4840.18, -187500.02, -187500.02, 0.00, -187500.02, -187500.02, 0.000, 0.000, 0.000, 13:57:28.486, 1574276248486
148, -187500.02, 10706.55, 4832.56, -187500.02, -187500.02, 0.00, -187500.02, -187500.02, 0.000, 0.000, 0.000, 13:57:28.487, 1574276248487
149, -187500.02, 10705.70, 4832.11, -187500.02, -187500.02, 0.00, -187500.02, -187500.02, -0.002, -0.020, 0.990, 13:57:28.487, 1574276248487
150, -187500.02, 10713.95, 4833.72, -187500.02, -187500.02, 0.00, -187500.02, -187500.02, 0.000, 0.000, 0.000, 13:57:28.538, 1574276248538
151, -187500.02, 10725.62, 4825.32, -187500.02, -187500.02, 0.00, -187500.02, -187500.02, 0.000, 0.000, 0.000, 13:57:28.538, 1574276248538
152, -187500.02, 10717.75, 4830.73, -187500.02, -187500.02, 0.00, -187500.02, -187500.02, 0.000, 0.000, 0.000, 13:57:28.538, 1574276248538
153, -187500.02, 10721.24, 4828.58, -187500.02, -187500.02, 0.00, -187500.02, -187500.02, 0.000, 0.000, 0.000, 13:57:28.538, 1574276248538
154, -187500.02, 10729.80, 4821.47, -187500.02, -187500.02, 0.00, -187500.02, -187500.02, 0.000, 0.000, 0.000, 13:57:28.538, 1574276248538
155, -187500.02, 10731.03, 4825.12, -187500.02, -187500.02, 0.00, -187500.02, -187500.02, 0.000, 0.000, 0.000, 13:57:28.538, 1574276248538
156, -187500.02, 10733.96, 4820.29, -187500.02, -187500.02, 0.00, -187500.02, -187500.02, 0.000, 0.000, 0.000, 13:57:28.538, 1574276248538
157, -187500.02, 10737.53, 4825.61, -187500.02, -187500.02, 0.00, -187500.02, -187500.02, 0.000, 0.000, 0.000, 13:57:28.539, 1574276248539
158, -187500.02, 10738.74, 4812.82, -187500.02, -187500.02, 0.00, -187500.02, -187500.02, 0.000, -0.022, 0.992, 13:57:28.539, 1574276248539
159, -187500.02, 10738.98, 4798.65, -187500.02, -187500.02, 0.00, -187500.02, -187500.02, 0.000, 0.000, 0.000, 13:57:28.539, 1574276248539
160, -187500.02, 10742.14, 4780.23, -187500.02, -187500.02, 0.00, -187500.02, -187500.02, 0.000, 0.000, 0.000, 13:57:28.539, 1574276248539
161, -187500.02, 10734.54, 4791.88, -187500.02, -187500.02, 0.00, -187500.02, -187500.02, 0.000, 0.000, 0.000, 13:57:28.540, 1574276248540
162, -187500.02, 10741.71, 4789.51, -187500.02, -187500.02, 0.00, -187500.02, -187500.02, 0.000, 0.000, 0.000, 13:57:28.540, 1574276248540
163, -187500.02, 10749.71, 4797.06, -187500.02, -187500.02, 0.00, -187500.02, -187500.02, 0.000, 0.000, 0.000, 13:57:28.540, 1574276248540
164, -187500.02, 10749.24, 4797.96, -187500.02, -187500.02, 0.00, -187500.02, -187500.02, 0.000, 0.000, 0.000, 13:57:28.540, 1574276248540
165, -187500.02, 10751.43, 4793.98, -187500.02, -187500.02, 0.00, -187500.02, -187500.02, 0.000, 0.000, 0.000, 13:57:28.599, 1574276248599
166, -187500.02, 10753.49, 4786.58, -187500.02, -187500.02, 0.00, -187500.02, -187500.02, 0.000, 0.000, 0.000, 13:57:28.600, 1574276248600
167, -187500.02, 10763.06, 4775.03, -187500.02, -187500.02, 0.00, -187500.02, -187500.02, 0.000, 0.000, 0.000, 13:57:28.600, 1574276248600
168, -187500.02, 10761.40, 4786.34, -187500.02, -187500.02, 0.00, -187500.02, -187500.02, 0.000, -0.016, 0.992, 13:57:28.601, 1574276248601
169, -187500.02, 10764.67, 4782.25, -187500.02, -187500.02, 0.00, -187500.02, -187500.02, 0.000, 0.000, 0.000, 13:57:28.601, 1574276248601
170, -187500.02, 10770.37, 4779.96, -187500.02, -187500.02, 0.00, -187500.02, -187500.02, 0.000, 0.000, 0.000, 13:57:28.601, 1574276248601
171, -187500.02, 10766.08, 4787.36, -187500.02, -187500.02, 0.00, -187500.02, -187500.02, 0.000, 0.000, 0.000, 13:57:28.602, 1574276248602
172, -187500.02, 10764.62, 4794.99, -187500.02, -187500.02, 0.00, -187500.02, -187500.02, 0.000, 0.000, 0.000, 13:57:28.602, 1574276248602
173, -187500.02, 10769.99, 4776.37, -187500.02, -187500.02, 0.00, -187500.02, -187500.02, 0.000, 0.000, 0.000, 13:57:28.602, 1574276248602
174, -187500.02, 10778.17, 4771.74, -187500.02, -187500.02, 0.00, -187500.02, -187500.02, 0.000, 0.000, 0.000, 13:57:28.602, 1574276248602
175, -187500.02, 10784.56, 4764.79, -187500.02, -187500.02, 0.00, -187500.02, -187500.02, 0.000, 0.000, 0.000, 13:57:28.602, 1574276248602
176, -187500.02, 10784.13, 4772.97, -187500.02, -187500.02, 0.00, -187500.02, -187500.02, 0.000, 0.000, 0.000, 13:57:28.602, 1574276248602
177, -187500.02, 10779.53, 4760.45, -187500.02, -187500.02, 0.00, -187500.02, -187500.02, 0.000, 0.000, 0.000, 13:57:28.603, 1574276248603
178, -187500.02, 10789.72, 4748.38, -187500.02, -187500.02, 0.00, -187500.02, -187500.02, -0.004, -0.022, 0.992, 13:57:28.603, 1574276248603
179, -187500.02, 10792.54, 4768.32, -187500.02, -187500.02, 0.00, -187500.02, -187500.02, 0.000, 0.000, 0.000, 13:57:28.603, 1574276248603
180, -187500.02, 10794.08, 4769.06, -187500.02, -187500.02, 0.00, -187500.02, -187500.02, 0.000, 0.000, 0.000, 13:57:28.662, 1574276248662
181, -187500.02, 10796.36, 4769.01, -187500.02, -187500.02, 0.00, -187500.02, -187500.02, 0.000, 0.000, 0.000, 13:57:28.663, 1574276248663
182, -187500.02, 10800.68, 4746.21, -187500.02, -187500.02, 0.00, -187500.02, -187500.02, 0.000, 0.000, 0.000, 13:57:28.664, 1574276248664
183, -187500.02, 10795.76, 4756.81, -187500.02, -187500.02, 0.00, -187500.02, -187500.02, 0.000, 0.000, 0.000, 13:57:28.665, 1574276248665
184, -187500.02, 10802.29, 4761.28, -187500.02, -187500.02, 0.00, -187500.02, -187500.02, 0.000, 0.000, 0.000, 13:57:28.666, 1574276248666
185, -187500.02, 10807.83, 4749.48, -187500.02, -187500.02, 0.00, -187500.02, -187500.02, 0.000, 0.000, 0.000, 13:57:28.667, 1574276248667
186, -187500.02, 10806.91, 4733.05, -187500.02, -187500.02, 0.00, -187500.02, -187500.02, 0.000, 0.000, 0.000, 13:57:28.668, 1574276248668
187, -187500.02, 10807.81, 4734.68, -187500.02, -187500.02, 0.00, -187500.02, -187500.02, 0.000, 0.000, 0.000, 13:57:28.668, 1574276248668
188, -187500.02, 10809.17, 4735.89, -187500.02, -187500.02, 0.00, -187500.02, -187500.02, -0.004, -0.020, 0.988, 13:57:28.669, 1574276248669
189, -187500.02, 10810.17, 4735.44, -187500.02, -187500.02, 0.00, -187500.02, -187500.02, 0.000, 0.000, 0.000, 13:57:28.670, 1574276248670
190, -187500.02, 10819.00, 4732.60, -187500.02, -187500.02, 0.00, -187500.02, -187500.02, 0.000, 0.000, 0.000, 13:57:28.671, 1574276248671
191, -187500.02, 10819.63, 4728.42, -187500.02, -187500.02, 0.00, -187500.02, -187500.02, 0.000, 0.000, 0.000, 13:57:28.672, 1574276248672
192, -187500.02, 10814.38, 4730.77, -187500.02, -187500.02, 0.00, -187500.02, -187500.02, 0.000, 0.000, 0.000, 13:57:28.672, 1574276248672
193, -187500.02, 10819.34, 4734.84, -187500.02, -187500.02, 0.00, -187500.02, -187500.02, 0.000, 0.000, 0.000, 13:57:28.672, 1574276248672
194, -187500.02, 10820.39, 4740.78, -187500.02, -187500.02, 0.00, -187500.02, -187500.02, 0.000, 0.000, 0.000, 13:57:28.673, 1574276248673
195, -187500.02, 10823.07, 4745.68, -187500.02, -187500.02, 0.00, -187500.02, -187500.02, 0.000, 0.000, 0.000, 13:57:28.724, 1574276248724
196, -187500.02, 10826.98, 4730.28, -187500.02, -187500.02, 0.00, -187500.02, -187500.02, 0.000, 0.000, 0.000, 13:57:28.724, 1574276248724
197, -187500.02, 10827.79, 4711.10, -187500.02, -187500.02, 0.00, -187500.02, -187500.02, 0.000, 0.000, 0.000, 13:57:28.725, 1574276248725
198, -187500.02, 10833.20, 4686.71, -187500.02, -187500.02, 0.00, -187500.02, -187500.02, -0.006, -0.022, 0.988, 13:57:28.725, 1574276248725
199, -187500.02, 10828.91, 4723.95, -187500.02, -187500.02, 0.00, -187500.02, -187500.02, 0.000, 0.000, 0.000, 13:57:28.726, 1574276248726
200, -187500.02, 10831.63, 4743.38, -187500.02, -187500.02, 0.00, -187500.02, -187500.02, 0.000, 0.000, 0.000, 13:57:28.726, 1574276248726
201, -187500.02, 10837.98, 4717.04, -187500.02, -187500.02, 0.00, -187500.02, -187500.02, 0.000, 0.000, 0.000, 13:57:28.726, 1574276248726
202, -187500.02, 10841.74, 4700.73, -187500.02, -187500.02, 0.00, -187500.02, -187500.02, 0.000, 0.000, 0.000, 13:57:28.727, 1574276248727
203, -187500.02, 10833.93, 4722.50, -187500.02, -187500.02, 0.00, -187500.02, -187500.02, 0.000, 0.000, 0.000, 13:57:28.727, 1574276248727
204, -187500.02, 10837.53, 4708.26, -187500.02, -187500.02, 0.00, -187500.02, -187500.02, 0.000, 0.000, 0.000, 13:57:28.728, 1574276248728
205, -187500.02, 10843.26, 4692.70, -187500.02, -187500.02, 0.00, -187500.02, -187500.02, 0.000, 0.000, 0.000, 13:57:28.728, 1574276248728
206, -187500.02, 10834.63, 4715.97, -187500.02, -187500.02, 0.00, -187500.02, -187500.02, 0.000, 0.000, 0.000, 13:57:28.728, 1574276248728
207, -187500.02, 10843.19, 4692.39, -187500.02, -187500.02, 0.00, -187500.02, -187500.02, 0.000, 0.000, 0.000, 13:57:28.729, 1574276248729
208, -187500.02, 10850.65, 4691.27, -187500.02, -187500.02, 0.00, -187500.02, -187500.02, -0.006, -0.018, 0.988, 13:57:28.731, 1574276248731
209, -187500.02, 10849.71, 4699.77, -187500.02, -187500.02, 0.00, -187500.02, -187500.02, 0.000, 0.000, 0.000, 13:57:28.732, 1574276248732
210, -187500.02, 10846.65, 4688.35, -187500.02, -187500.02, 0.00, -187500.02, -187500.02, 0.000, 0.000, 0.000, 13:57:28.779, 1574276248779
211, -187500.02, 10851.15, 4669.21, -187500.02, -187500.02, 0.00, -187500.02, -187500.02, 0.000, 0.000, 0.000, 13:57:28.780, 1574276248780
212, -187500.02, 10854.66, 4660.07, -187500.02, -187500.02, 0.00, -187500.02, -187500.02, 0.000, 0.000, 0.000, 13:57:28.781, 1574276248781
213, -187500.02, 10851.53, 4688.64, -187500.02, -187500.02, 0.00, -187500.02, -187500.02, 0.000, 0.000, 0.000, 13:57:28.781, 1574276248781
214, -187500.02, 10850.09, 4699.74, -187500.02, -187500.02, 0.00, -187500.02, -187500.02, 0.000, 0.000, 0.000, 13:57:28.781, 1574276248781
215, -187500.02, 10858.61, 4690.02, -187500.02, -187500.02, 0.00, -187500.02, -187500.02, 0.000, 0.000, 0.000, 13:57:28.782, 1574276248782
216, -187500.02, 10859.73, 4687.59, -187500.02, -187500.02, 0.00, -187500.02, -187500.02, 0.000, 0.000, 0.000, 13:57:28.782, 1574276248782
217, -187500.02, 10862.43, 4659.44, -187500.02, -187500.02, 0.00, -187500.02, -187500.02, 0.000, 0.000, 0.000, 13:57:28.782, 1574276248782
218, -187500.02, 10853.02, 4671.49, -187500.02, -187500.02, 0.00, -187500.02, -187500.02, -0.002, -0.020, 0.988, 13:57:28.782, 1574276248782
219, -187500.02, 10854.77, 4657.83, -187500.02, -187500.02, 0.00, -187500.02, -187500.02, 0.000, 0.000, 0.000, 13:57:28.782, 1574276248782
220, -187500.02, 10867.17, 4632.64, -187500.02, -187500.02, 0.00, -187500.02, -187500.02, 0.000, 0.000, 0.000, 13:57:28.782, 1574276248782
221, -187500.02, 10864.24, 4635.48, -187500.02, -187500.02, 0.00, -187500.02, -187500.02, 0.000, 0.000, 0.000, 13:57:28.783, 1574276248783
222, -187500.02, 10863.91, 4636.82, -187500.02, -187500.02, 0.00, -187500.02, -187500.02, 0.000, 0.000, 0.000, 13:57:28.783, 1574276248783
223, -187500.02, 10862.68, 4649.01, -187500.02, -187500.02, 0.00, -187500.02, -187500.02, 0.000, 0.000, 0.000, 13:57:28.783, 1574276248783
224, -187500.02, 10858.79, 4652.18, -187500.02, -187500.02, 0.00, -187500.02, -187500.02, 0.000, 0.000, 0.000, 13:57:28.783, 1574276248783
225, -187500.02, 10862.23, 4638.39, -187500.02, -187500.02, 0.00, -187500.02, -187500.02, 0.000, 0.000, 0.000, 13:57:28.838, 1574276248838
226, -187500.02, 10863.60, 4625.45, -187500.02, -187500.02, 0.00, -187500.02, -187500.02, 0.000, 0.000, 0.000, 13:57:28.839, 1574276248839
227, -187500.02, 10865.25, 4626.52, -187500.02, -187500.02, 0.00, -187500.02, -187500.02, 0.000, 0.000, 0.000, 13:57:28.839, 1574276248839
228, -187500.02, 10868.49, 4638.57, -187500.02, -187500.02, 0.00, -187500.02, -187500.02, 0.002, -0.020, 0.988, 13:57:28.840, 1574276248840
229, -187500.02, 10877.50, 4622.23, -187500.02, -187500.02, 0.00, -187500.02, -187500.02, 0.000, 0.000, 0.000, 13:57:28.840, 1574276248840
230, -187500.02, 10878.82, 4615.10, -187500.02, -187500.02, 0.00, -187500.02, -187500.02, 0.000, 0.000, 0.000, 13:57:28.840, 1574276248840
231, -187500.02, 10874.79, 4629.47, -187500.02, -187500.02, 0.00, -187500.02, -187500.02, 0.000, 0.000, 0.000, 13:57:28.840, 1574276248840
232, -187500.02, 10878.01, 4631.97, -187500.02, -187500.02, 0.00, -187500.02, -187500.02, 0.000, 0.000, 0.000, 13:57:28.840, 1574276248840
233, -187500.02, 10882.30, 4610.65, -187500.02, -187500.02, 0.00, -187500.02, -187500.02, 0.000, 0.000, 0.000, 13:57:28.840, 1574276248840
234, -187500.02, 10884.18, 4598.80, -187500.02, -187500.02, 0.00, -187500.02, -187500.02, 0.000, 0.000, 0.000, 13:57:28.840, 1574276248840
235, -187500.02, 10881.39, 4609.29, -187500.02, -187500.02, 0.00, -187500.02, -187500.02, 0.000, 0.000, 0.000, 13:57:28.841, 1574276248841
236, -187500.02, 10885.57, 4593.13, -187500.02, -187500.02, 0.00, -187500.02, -187500.02, 0.000, 0.000, 0.000, 13:57:28.841, 1574276248841
237, -187500.02, 10884.94, 4592.70, -187500.02, -187500.02, 0.00, -187500.02, -187500.02, 0.000, 0.000, 0.000, 13:57:28.841, 1574276248841
238, -187500.02, 10889.70, 4595.59, -187500.02, -187500.02, 0.00, -187500.02, -187500.02, 0.002, -0.020, 0.990, 13:57:28.841, 1574276248841
239, -187500.02, 10897.84, 4585.95, -187500.02, -187500.02, 0.00, -187500.02, -187500.02, 0.000, 0.000, 0.000, 13:57:28.841, 1574276248841
240, -187500.02, 10901.86, 4574.60, -187500.02, -187500.02, 0.00, -187500.02, -187500.02, 0.000, 0.000, 0.000, 13:57:28.841, 1574276248841
241, -187500.02, 10899.51, 4572.18, -187500.02, -187500.02, 0.00, -187500.02, -187500.02, 0.000, 0.000, 0.000, 13:57:28.900, 1574276248900
242, -187500.02, 10895.69, 4580.07, -187500.02, -187500.02, 0.00, -187500.02, -187500.02, 0.000, 0.000, 0.000, 13:57:28.901, 1574276248901
243, -187500.02, 10890.15, 4585.88, -187500.02, -187500.02, 0.00, -187500.02, -187500.02, 0.000, 0.000, 0.000, 13:57:28.902, 1574276248902
244, -187500.02, 10893.48, 4568.74, -187500.02, -187500.02, 0.00, -187500.02, -187500.02, 0.000, 0.000, 0.000, 13:57:28.902, 1574276248902
245, -187500.02, 10896.79, 4571.96, -187500.02, -187500.02, 0.00, -187500.02, -187500.02, 0.000, 0.000, 0.000, 13:57:28.902, 1574276248902
246, -187500.02, 10902.76, 4567.71, -187500.02, -187500.02, 0.00, -187500.02, -187500.02, 0.000, 0.000, 0.000, 13:57:28.902, 1574276248902
247, -187500.02, 10906.04, 4570.06, -187500.02, -187500.02, 0.00, -187500.02, -187500.02, 0.000, 0.000, 0.000, 13:57:28.903, 1574276248903
248, -187500.02, 10907.11, 4558.21, -187500.02, -187500.02, 0.00, -187500.02, -187500.02, 0.002, -0.018, 0.992, 13:57:28.903, 1574276248903
249, -187500.02, 10910.42, 4569.55, -187500.02, -187500.02, 0.00, -187500.02, -187500.02, 0.000, 0.000, 0.000, 13:57:28.904, 1574276248904
250, -187500.02, 10915.94, 4562.06, -187500.02, -187500.02, 0.00, -187500.02, -187500.02, 0.000, 0.000, 0.000, 13:57:28.904, 1574276248904
251, -187500.02, 10918.83, 4561.14, -187500.02, -187500.02, 0.00, -187500.02, -187500.02, 0.000, 0.000, 0.000, 13:57:28.904, 1574276248904
252, -187500.02, 10917.96, 4547.82, -187500.02, -187500.02, 0.00, -187500.02, -187500.02, 0.000, 0.000, 0.000, 13:57:28.905, 1574276248905
253, -187500.02, 10913.19, 4539.37, -187500.02, -187500.02, 0.00, -187500.02, -187500.02, 0.000, 0.000, 0.000, 13:57:28.905, 1574276248905
254, -187500.02, 10913.78, 4548.31, -187500.02, -187500.02, 0.00, -187500.02, -187500.02, 0.000, 0.000, 0.000, 13:57:28.906, 1574276248906
255, -187500.02, 10921.53, 4538.32, -187500.02, -187500.02, 0.00, -187500.02, -187500.02, 0.000, 0.000, 0.000, 13:57:28.906, 1574276248906
0, -187500.02, 10929.31, 4527.06, -187500.02, -187500.02, 0.00, -187500.02, -187500.02, 0.000, 0.000, 0.000, 13:57:28.960, 1574276248960
1, -187500.02, 10931.37, 4521.78, -187500.02, -187500.02, 0.00, -187500.02, -187500.02, 0.000, 0.000, 0.000, 13:57:28.961, 1574276248961
2, -187500.02, 10921.98, 4547.17, -187500.02, -187500.02, 0.00, -187500.02, -187500.02, 0.000, -0.012, 0.988, 13:57:28.961, 1574276248961
3, -187500.02, 10919.27, 4525.51, -187500.02, -187500.02, 0.00, -187500.02, -187500.02, 0.000, 0.000, 0.000, 13:57:28.961, 1574276248961
4, -187500.02, 10920.79, 4524.62, -187500.02, -187500.02, 0.00, -187500.02, -187500.02, 0.000, 0.000, 0.000, 13:57:28.961, 1574276248961
5, -187500.02, 10926.49, 4527.75, -187500.02, -187500.02, 0.00, -187500.02, -187500.02, 0.000, 0.000, 0.000, 13:57:28.962, 1574276248962
6, -187500.02, 10931.97, 4530.90, -187500.02, -187500.02, 0.00, -187500.02, -187500.02, 0.000, 0.000, 0.000, 13:57:28.962, 1574276248962
7, -187500.02, 10932.82, 4537.69, -187500.02, -187500.02, 0.00, -187500.02, -187500.02, 0.000, 0.000, 0.000, 13:57:28.963, 1574276248963
8, -187500.02, 10932.55, 4540.06, -187500.02, -187500.02, 0.00, -187500.02, -187500.02, 0.000, 0.000, 0.000, 13:57:28.964, 1574276248964
9, -187500.02, 10932.48, 4550.01, -187500.02, -187500.02, 0.00, -187500.02, -187500.02, 0.000, 0.000, 0.000, 13:57:28.964, 1574276248964
10, -187500.02, 10936.06, 4536.15, -187500.02, -187500.02, 0.00, -187500.02, -187500.02, 0.000, 0.000, 0.000, 13:57:28.964, 1574276248964
11, -187500.02, 10942.27, 4516.10, -187500.02, -187500.02, 0.00, -187500.02, -187500.02, 0.000, 0.000, 0.000, 13:57:28.964, 1574276248964
12, -187500.02, 10947.21, 4509.24, -187500.02, -187500.02, 0.00, -187500.02, -187500.02, 0.002, -0.012, 0.992, 13:57:28.964, 1574276248964
13, -187500.02, 10936.82, 4521.87, -187500.02, -187500.02, 0.00, -187500.02, -187500.02, 0.000, 0.000, 0.000, 13:57:28.965, 1574276248965
14, -187500.02, 10937.80, 4534.74, -187500.02, -187500.02, 0.00, -187500.02, -187500.02, 0.000, 0.000, 0.000, 13:57:28.965, 1574276248965
15, -187500.02, 10945.56, 4518.58, -187500.02, -187500.02, 0.00, -187500.02, -187500.02, 0.000, 0.000, 0.000, 13:57:29.020, 1574276249020
16, -187500.02, 10951.04, 4516.39, -187500.02, -187500.02, 0.00, -187500.02, -187500.02, 0.000, 0.000, 0.000, 13:57:29.021, 1574276249021
17, -187500.02, 10944.49, 4537.40, -187500.02, -187500.02, 0.00, -187500.02, -187500.02, 0.000, 0.000, 0.000, 13:57:29.021, 1574276249021
18, -187500.02, 10943.19, 4534.68, -187500.02, -187500.02, 0.00, -187500.02, -187500.02, 0.000, 0.000, 0.000, 13:57:29.023, 1574276249023
19, -187500.02, 10943.35, 4524.17, -187500.02, -187500.02, 0.00, -187500.02, -187500.02, 0.000, 0.000, 0.000, 13:57:29.024, 1574276249024
20, -187500.02, 10948.80, 4522.16, -187500.02, -187500.02, 0.00, -187500.02, -187500.02, 0.000, 0.000, 0.000, 13:57:29.025, 1574276249025
21, -187500.02, 10947.10, 4525.45, -187500.02, -187500.02, 0.00, -187500.02, -187500.02, 0.002, -0.018, 0.988, 13:57:29.025, 1574276249025
22, -187500.02, 10952.76, 4524.80, -187500.02, -187500.02, 0.00, -187500.02, -187500.02, 0.000, 0.000, 0.000, 13:57:29.025, 1574276249025
23, -187500.02, 10954.70, 4528.98, -187500.02, -187500.02, 0.00, -187500.02, -187500.02, 0.000, 0.000, 0.000, 13:57:29.026, 1574276249026
24, -187500.02, 10951.93, 4538.16, -187500.02, -187500.02, 0.00, -187500.02, -187500.02, 0.000, 0.000, 0.000, 13:57:29.026, 1574276249026
25, -187500.02, 10952.98, 4530.92, -187500.02, -187500.02, 0.00, -187500.02, -187500.02, 0.000, 0.000, 0.000, 13:57:29.026, 1574276249026
26, -187500.02, 10958.10, 4523.30, -187500.02, -187500.02, 0.00, -187500.02, -187500.02, 0.000, 0.000, 0.000, 13:57:29.027, 1574276249027
27, -187500.02, 10951.86, 4537.87, -187500.02, -187500.02, 0.00, -187500.02, -187500.02, 0.000, 0.000, 0.000, 13:57:29.027, 1574276249027
28, -187500.02, 10953.05, 4540.98, -187500.02, -187500.02, 0.00, -187500.02, -187500.02, 0.000, 0.000, 0.000, 13:57:29.027, 1574276249027
29, -187500.02, 10954.83, 4545.54, -187500.02, -187500.02, 0.00, -187500.02, -187500.02, 0.000, 0.000, 0.000, 13:57:29.028, 1574276249028
30, -187500.02, 10957.81, 4545.27, -187500.02, -187500.02, 0.00, -187500.02, -187500.02, 0.000, 0.000, 0.000, 13:57:29.080, 1574276249080
31, -187500.02, 10961.47, 4540.56, -187500.02, -187500.02, 0.00, -187500.02, -187500.02, 0.002, -0.020, 0.984, 13:57:29.081, 1574276249081
32, -187500.02, 10967.06, 4546.43, -187500.02, -187500.02, 0.00, -187500.02, -187500.02, 0.000, 0.000, 0.000, 13:57:29.081, 1574276249081
33, -187500.02, 10965.43, 4552.56, -187500.02, -187500.02, 0.00, -187500.02, -187500.02, 0.000, 0.000, 0.000, 13:57:29.082, 1574276249082
34, -187500.02, 10963.78, 4554.01, -187500.02, -187500.02, 0.00, -187500.02, -187500.02, 0.000, 0.000, 0.000, 13:57:29.083, 1574276249083
35, -187500.02, 10961.07, 4553.32, -187500.02, -187500.02, 0.00, -187500.02, -187500.02, 0.000, 0.000, 0.000, 13:57:29.083, 1574276249083
36, -187500.02, 10965.68, 4551.28, -187500.02, -187500.02, 0.00, -187500.02, -187500.02, 0.000, 0.000, 0.000, 13:57:29.084, 1574276249084
37, -187500.02, 10972.72, 4562.15, -187500.02, -187500.02, 0.00, -187500.02, -187500.02, 0.000, 0.000, 0.000, 13:57:29.084, 1574276249084
38, -187500.02, 10975.40, 4564.67, -187500.02, -187500.02, 0.00, -187500.02, -187500.02, 0.000, 0.000, 0.000, 13:57:29.085, 1574276249085
39, -187500.02, 10970.93, 4567.31, -187500.02, -187500.02, 0.00, -187500.02, -187500.02, 0.000, 0.000, 0.000, 13:57:29.085, 1574276249085
40, -187500.02, 10972.67, 4570.35, -187500.02, -187500.02, 0.00, -187500.02, -187500.02, 0.000, 0.000, 0.000, 13:57:29.087, 1574276249087
41, -187500.02, 10977.23, 4571.07, -187500.02, -187500.02, 0.00, -187500.02, -187500.02, 0.002, -0.020, 0.980, 13:57:29.088, 1574276249088
42, -187500.02, 10979.09, 4579.51, -187500.02, -187500.02, 0.00, -187500.02, -187500.02, 0.000, 0.000, 0.000, 13:57:29.089, 1574276249089
43, -187500.02, 10984.41, 4582.96, -187500.02, -187500.02, 0.00, -187500.02, -187500.02, 0.000, 0.000, 0.000, 13:57:29.089, 1574276249089
44, -187500.02, 10980.70, 4587.29, -187500.02, -187500.02, 0.00, -187500.02, -187500.02, 0.000, 0.000, 0.000, 13:57:29.090, 1574276249090
45, -187500.02, 10978.17, 4589.86, -187500.02, -187500.02, 0.00, -187500.02, -187500.02, 0.000, 0.000, 0.000, 13:57:29.144, 1574276249144
46, -187500.02, 10977.48, 4601.80, -187500.02, -187500.02, 0.00, -187500.02, -187500.02, 0.000, 0.000, 0.000, 13:57:29.144, 1574276249144
47, -187500.02, 10981.43, 4609.56, -187500.02, -187500.02, 0.00, -187500.02, -187500.02, 0.000, 0.000, 0.000, 13:57:29.145, 1574276249145
48, -187500.02, 10988.14, 4611.75, -187500.02, -187500.02, 0.00, -187500.02, -187500.02, 0.000, 0.000, 0.000, 13:57:29.145, 1574276249145
49, -187500.02, 10984.63, 4605.46, -187500.02, -187500.02, 0.00, -187500.02, -187500.02, 0.000, 0.000, 0.000, 13:57:29.145, 1574276249145
50, -187500.02, 10986.58, 4611.46, -187500.02, -187500.02, 0.00, -187500.02, -187500.02, 0.000, 0.000, 0.000, 13:57:29.147, 1574276249147
51, -187500.02, 10989.26, 4622.39, -187500.02, -187500.02, 0.00, -187500.02, -187500.02, 0.006, -0.018, 0.984, 13:57:29.147, 1574276249147
52, -187500.02, 10985.90, 4626.45, -187500.02, -187500.02, 0.00, -187500.02, -187500.02, 0.000, 0.000, 0.000, 13:57:29.147, 1574276249147
53, -187500.02, 10985.73, 4629.74, -187500.02, -187500.02, 0.00, -187500.02, -187500.02, 0.000, 0.000, 0.000, 13:57:29.147, 1574276249147
54, -187500.02, 10986.13, 4635.71, -187500.02, -187500.02, 0.00, -187500.02, -187500.02, 0.000, 0.000, 0.000, 13:57:29.148, 1574276249148
55, -187500.02, 10989.64, 4636.29, -187500.02, -187500.02, 0.00, -187500.02, -187500.02, 0.000, 0.000, 0.000, 13:57:29.148, 1574276249148
56, -187500.02, 10996.12, 4634.59, -187500.02, -187500.02, 0.00, -187500.02, -187500.02, 0.000, 0.000, 0.000, 13:57:29.148, 1574276249148
57, -187500.02, 10998.71, 4632.44, -187500.02, -187500.02, 0.00, -187500.02, -187500.02, 0.000, 0.000, 0.000, 13:57:29.148, 1574276249148
58, -187500.02, 10996.25, 4638.90, -187500.02, -187500.02, 0.00, -187500.02, -187500.02, 0.000, 0.000, 0.000, 13:57:29.149, 1574276249149
59, -187500.02, 10994.58, 4647.82, -187500.02, -187500.02, 0.00, -187500.02, -187500.02, 0.000, 0.000, 0.000, 13:57:29.149, 1574276249149
60, -187500.02, 10989.59, 4658.66, -187500.02, -187500.02, 0.00, -187500.02, -187500.02, 0.000, 0.000, 0.000, 13:57:29.199, 1574276249199
61, -187500.02, 10987.47, 4666.40, -187500.02, -187500.02, 0.00, -187500.02, -187500.02, 0.006, -0.024, 0.988, 13:57:29.199, 1574276249199
62, -187500.02, 10992.07, 4667.13, -187500.02, -187500.02, 0.00, -187500.02, -187500.02, 0.000, 0.000, 0.000, 13:57:29.199, 1574276249199
63, -187500.02, 10993.93, 4666.02, -187500.02, -187500.02, 0.00, -187500.02, -187500.02, 0.000, 0.000, 0.000, 13:57:29.200, 1574276249200
64, -187500.02, 10990.20, 4686.07, -187500.02, -187500.02, 0.00, -187500.02, -187500.02, 0.000, 0.000, 0.000, 13:57:29.200, 1574276249200
65, -187500.02, 10989.93, 4694.22, -187500.02, -187500.02, 0.00, -187500.02, -187500.02, 0.000, 0.000, 0.000, 13:57:29.200, 1574276249200
66, -187500.02, 10990.82, 4693.55, -187500.02, -187500.02, 0.00, -187500.02, -187500.02, 0.000, 0.000, 0.000, 13:57:29.200, 1574276249200
67, -187500.02, 10987.27, 4719.35, -187500.02, -187500.02, 0.00, -187500.02, -187500.02, 0.000, 0.000, 0.000, 13:57:29.200, 1574276249200
68, -187500.02, 10988.12, 4732.76, -187500.02, -187500.02, 0.00, -187500.02, -187500.02, 0.000, 0.000, 0.000, 13:57:29.200, 1574276249200
69, -187500.02, 10977.54, 4726.92, -187500.02, -187500.02, 0.00, -187500.02, -187500.02, 0.000, 0.000, 0.000, 13:57:29.201, 1574276249201
70, -187500.02, 10968.69, 4716.42, -187500.02, -187500.02, 0.00, -187500.02, -187500.02, 0.000, 0.000, 0.000, 13:57:29.201, 1574276249201
71, -187500.02, 10996.79, 4673.06, -187500.02, -187500.02, 0.00, -187500.02, -187500.02, 0.002, -0.020, 0.984, 13:57:29.201, 1574276249201
72, -187500.02, 11020.64, 4627.91, -187500.02, -187500.02, 0.00, -187500.02, -187500.02, 0.000, 0.000, 0.000, 13:57:29.201, 1574276249201
73, -187500.02, 11028.37, 4595.47, -187500.02, -187500.02, 0.00, -187500.02, -187500.02, 0.000, 0.000, 0.000, 13:57:29.201, 1574276249201
74, -187500.02, 11020.66, 4639.15, -187500.02, -187500.02, 0.00, -187500.02, -187500.02, 0.000, 0.000, 0.000, 13:57:29.201, 1574276249201
75, -187500.02, 11009.17, 4675.49, -187500.02, -187500.02, 0.00, -187500.02, -187500.02, 0.000, 0.000, 0.000, 13:57:29.258, 1574276249258
76, -187500.02, 11010.00, 4649.16, -187500.02, -187500.02, 0.00, -187500.02, -187500.02, 0.000, 0.000, 0.000, 13:57:29.259, 1574276249259
77, -187500.02, 10985.30, 4680.57, -187500.02, -187500.02, 0.00, -187500.02, -187500.02, 0.000, 0.000, 0.000, 13:57:29.259, 1574276249259
78, -187500.02, 10991.85, 4674.02, -187500.02, -187500.02, 0.00, -187500.02, -187500.02, 0.000, 0.000, 0.000, 13:57:29.259, 1574276249259
79, -187500.02, 11018.36, 4626.74, -187500.02, -187500.02, 0.00, -187500.02, -187500.02, 0.000, 0.000, 0.000, 13:57:29.259, 1574276249259
80, -187500.02, 11016.62, 4644.63, -187500.02, -187500.02, 0.00, -187500.02, -187500.02, 0.000, 0.000, 0.000, 13:57:29.259, 1574276249259
81, -187500.02, 11001.17, 4680.46, -187500.02, -187500.02, 0.00, -187500.02, -187500.02, -0.004, -0.022, 0.988, 13:57:29.259, 1574276249259
82, -187500.02, 10993.28, 4643.42, -187500.02, -187500.02, 0.00, -187500.02, -187500.02, 0.000, 0.000, 0.000, 13:57:29.259, 1574276249259
83, -187500.02, 11013.60, 4659.47, -187500.02, -187500.02, 0.00, -187500.02, -187500.02, 0.000, 0.000, 0.000, 13:57:29.259, 1574276249259
84, -187500.02, 11030.83, 4658.98, -187500.02, -187500.02, 0.00, -187500.02, -187500.02, 0.000, 0.000, 0.000, 13:57:29.259, 1574276249259
85, -187500.02, 11035.59, 4649.52, -187500.02, -187500.02, 0.00, -187500.02, -187500.02, 0.000, 0.000, 0.000, 13:57:29.259, 1574276249259
86, -187500.02, 11021.49, 4695.14, -187500.02, -187500.02, 0.00, -187500.02, -187500.02, 0.000, 0.000, 0.000, 13:57:29.260, 1574276249260
87, -187500.02, 11015.30, 4698.58, -187500.02, -187500.02, 0.00, -187500.02, -187500.02, 0.000, 0.000, 0.000, 13:57:29.260, 1574276249260
88, -187500.02, 11024.51, 4673.71, -187500.02, -187500.02, 0.00, -187500.02, -187500.02, 0.000, 0.000, 0.000, 13:57:29.260, 1574276249260
89, -187500.02, 11024.21, 4648.98, -187500.02, -187500.02, 0.00, -187500.02, -187500.02, 0.000, 0.000, 0.000, 13:57:29.260, 1574276249260
90, -187500.02, 11016.03, 4626.23, -187500.02, -187500.02, 0.00, -187500.02, -187500.02, 0.000, 0.000, 0.000, 13:57:29.319, 1574276249319
91, -187500.02, 11000.25, 4602.43, -187500.02, -187500.02, 0.00, -187500.02, -187500.02, -0.002, -0.016, 0.988, 13:57:29.320, 1574276249320
92, -187500.02, 11015.81, 4636.44, -187500.02, -187500.02, 0.00, -187500.02, -187500.02, 0.000, 0.000, 0.000, 13:57:29.321, 1574276249321
93, -187500.02, 11037.42, 4701.44, -187500.02, -187500.02, 0.00, -187500.02, -187500.02, 0.000, 0.000, 0.000, 13:57:29.321, 1574276249321
94, -187500.02, 11032.46, 4677.77, -187500.02, -187500.02, 0.00, -187500.02, -187500.02, 0.000, 0.000, 0.000, 13:57:29.321, 1574276249321
95, -187500.02, 10993.88, 4640.11, -187500.02, -187500.02, 0.00, -187500.02, -187500.02, 0.000, 0.000, 0.000, 13:57:29.322, 1574276249322
96, -187500.02, 11000.99, 4614.05, -187500.02, -187500.02, 0.00, -187500.02, -187500.02, 0.000, 0.000, 0.000, 13:57:29.322, 1574276249322
97, -187500.02, 11013.60, 4596.35, -187500.02, -187500.02, 0.00, -187500.02, -187500.02, 0.000, 0.000, 0.000, 13:57:29.322, 1574276249322
98, -187500.02, 11025.02, 4680.14, -187500.02, -187500.02, 0.00, -187500.02, -187500.02, 0.000, 0.000, 0.000, 13:57:29.322, 1574276249322
99, -187500.02, 11033.63, 4678.91, -187500.02, -187500.02, 0.00, -187500.02, -187500.02, 0.000, 0.000, 0.000, 13:57:29.322, 1574276249322
100, -187500.02, 11055.60, 4641.83, -187500.02, -187500.02, 0.00, -187500.02, -187500.02, 0.000, 0.000, 0.000, 13:57:29.322, 1574276249322
101, -187500.02, 11007.47, 4646.84, -187500.02, -187500.02, 0.00, -187500.02, -187500.02, -0.004, -0.020, 0.992, 13:57:29.322, 1574276249322
102, -187500.02, 10969.30, 4642.79, -187500.02, -187500.02, 0.00, -187500.02, -187500.02, 0.000, 0.000, 0.000, 13:57:29.323, 1574276249323
103, -187500.02, 10972.20, 4587.99, -187500.02, -187500.02, 0.00, -187500.02, -187500.02, 0.000, 0.000, 0.000, 13:57:29.323, 1574276249323
104, -187500.02, 10990.40, 4582.98, -187500.02, -187500.02, 0.00, -187500.02, -187500.02, 0.000, 0.000, 0.000, 13:57:29.323, 1574276249323
105, -187500.02, 11027.88, 4699.10, -187500.02, -187500.02, 0.00, -187500.02, -187500.02, 0.000, 0.000, 0.000, 13:57:29.380, 1574276249380
106, -187500.02, 11013.53, 4738.75, -187500.02, -187500.02, 0.00, -187500.02, -187500.02, 0.000, 0.000, 0.000, 13:57:29.382, 1574276249382
107, -187500.02, 10968.78, 4659.73, -187500.02, -187500.02, 0.00, -187500.02, -187500.02, 0.000, 0.000, 0.000, 13:57:29.382, 1574276249382
108, -187500.02, 10943.95, 4610.18, -187500.02, -187500.02, 0.00, -187500.02, -187500.02, 0.000, 0.000, 0.000, 13:57:29.382, 1574276249382
109, -187500.02, 10957.81, 4605.22, -187500.02, -187500.02, 0.00, -187500.02, -187500.02, 0.000, 0.000, 0.000, 13:57:29.382, 1574276249382
110, -187500.02, 11007.21, 4613.18, -187500.02, -187500.02, 0.00, -187500.02, -187500.02, 0.000, 0.000, 0.000, 13:57:29.382, 1574276249382
111, -187500.02, 10991.94, 4660.25, -187500.02, -187500.02, 0.00, -187500.02, -187500.02, -0.008, -0.020, 0.992, 13:57:29.383, 1574276249383
112, -187500.02, 11015.63, 4691.70, -187500.02, -187500.02, 0.00, -187500.02, -187500.02, 0.000, 0.000, 0.000, 13:57:29.383, 1574276249383
113, -187500.02, 11006.62, 4697.87, -187500.02, -187500.02, 0.00, -187500.02, -187500.02, 0.000, 0.000, 0.000, 13:57:29.383, 1574276249383
114, -187500.02, 10953.94, 4655.18, -187500.02, -187500.02, 0.00, -187500.02, -187500.02, 0.000, 0.000, 0.000, 13:57:29.383, 1574276249383
115, -187500.02, 10954.32, 4614.27, -187500.02, -187500.02, 0.00, -187500.02, -187500.02, 0.000, 0.000, 0.000, 13:57:29.383, 1574276249383
116, -187500.02, 10987.20, 4689.46, -187500.02, -187500.02, 0.00, -187500.02, -187500.02, 0.000, 0.000, 0.000, 13:57:29.383, 1574276249383
117, -187500.02, 10962.93, 4725.29, -187500.02, -187500.02, 0.00, -187500.02, -187500.02, 0.000, 0.000, 0.000, 13:57:29.384, 1574276249384
118, -187500.02, 10925.42, 4671.54, -187500.02, -187500.02, 0.00, -187500.02, -187500.02, 0.000, 0.000, 0.000, 13:57:29.384, 1574276249384
119, -187500.02, 10937.49, 4691.59, -187500.02, -187500.02, 0.00, -187500.02, -187500.02, 0.000, 0.000, 0.000, 13:57:29.384, 1574276249384
120, -187500.02, 10968.58, 4741.90, -187500.02, -187500.02, 0.00, -187500.02, -187500.02, 0.000, 0.000, 0.000, 13:57:29.440, 1574276249440
121, -187500.02, 10951.97, 4702.63, -187500.02, -187500.02, 0.00, -187500.02, -187500.02, -0.004, -0.022, 0.990, 13:57:29.440, 1574276249440
122, -187500.02, 10957.23, 4693.73, -187500.02, -187500.02, 0.00, -187500.02, -187500.02, 0.000, 0.000, 0.000, 13:57:29.440, 1574276249440
123, -187500.02, 10968.98, 4720.22, -187500.02, -187500.02, 0.00, -187500.02, -187500.02, 0.000, 0.000, 0.000, 13:57:29.440, 1574276249440
124, -187500.02, 10969.70, 4790.27, -187500.02, -187500.02, 0.00, -187500.02, -187500.02, 0.000, 0.000, 0.000, 13:57:29.441, 1574276249441
125, -187500.02, 10922.20, 4820.51, -187500.02, -187500.02, 0.00, -187500.02, -187500.02, 0.000, 0.000, 0.000, 13:57:29.441, 1574276249441
126, -187500.02, 10922.43, 4814.30, -187500.02, -187500.02, 0.00, -187500.02, -187500.02, 0.000, 0.000, 0.000, 13:57:29.441, 1574276249441
127, -187500.02, 10986.20, 4737.25, -187500.02, -187500.02, 0.00, -187500.02, -187500.02, 0.000, 0.000, 0.000, 13:57:29.441, 1574276249441
128, -187500.02, 11009.11, 4745.03, -187500.02, -187500.02, 0.00, -187500.02, -187500.02, 0.000, 0.000, 0.000, 13:57:29.441, 1574276249441
129, -187500.02, 10975.53, 4757.03, -187500.02, -187500.02, 0.00, -187500.02, -187500.02, 0.000, 0.000, 0.000, 13:57:29.442, 1574276249442
130, -187500.02, 10944.26, 4764.34, -187500.02, -187500.02, 0.00, -187500.02, -187500.02, 0.000, 0.000, 0.000, 13:57:29.442, 1574276249442
131, -187500.02, 10933.56, 4812.35, -187500.02, -187500.02, 0.00, -187500.02, -187500.02, -0.004, -0.022, 0.984, 13:57:29.443, 1574276249443
132, -187500.02, 10919.81, 4819.64, -187500.02, -187500.02, 0.00, -187500.02, -187500.02, 0.000, 0.000, 0.000, 13:57:29.443, 1574276249443
133, -187500.02, 10916.28, 4743.78, -187500.02, -187500.02, 0.00, -187500.02, -187500.02, 0.000, 0.000, 0.000, 13:57:29.443, 1574276249443
134, -187500.02, 10984.90, 4740.78, -187500.02, -187500.02, 0.00, -187500.02, -187500.02, 0.000, 0.000, 0.000, 13:57:29.443, 1574276249443
135, -187500.02, 10982.86, 4779.94, -187500.02, -187500.02, 0.00, -187500.02, -187500.02, 0.000, 0.000, 0.000, 13:57:29.499, 1574276249499
136, -187500.02, 10897.35, 4794.25, -187500.02, -187500.02, 0.00, -187500.02, -187500.02, 0.000, 0.000, 0.000, 13:57:29.499, 1574276249499
137, -187500.02, 10911.27, 4814.19, -187500.02, -187500.02, 0.00, -187500.02, -187500.02, 0.000, 0.000, 0.000, 13:57:29.499, 1574276249499
138, -187500.02, 10959.91, 4772.43, -187500.02, -187500.02, 0.00, -187500.02, -187500.02, 0.000, 0.000, 0.000, 13:57:29.500, 1574276249500
139, -187500.02, 10952.00, 4767.40, -187500.02, -187500.02, 0.00, -187500.02, -187500.02, 0.000, 0.000, 0.000, 13:57:29.500, 1574276249500
140, -187500.02, 10909.51, 4747.24, -187500.02, -187500.02, 0.00, -187500.02, -187500.02, 0.000, 0.000, 0.000, 13:57:29.500, 1574276249500
141, -187500.02, 10889.17, 4810.61, -187500.02, -187500.02, 0.00, -187500.02, -187500.02, -0.010, -0.018, 0.986, 13:57:29.500, 1574276249500
142, -187500.02, 10902.42, 4848.41, -187500.02, -187500.02, 0.00, -187500.02, -187500.02, 0.000, 0.000, 0.000, 13:57:29.500, 1574276249500
143, -187500.02, 10935.46, 4783.14, -187500.02, -187500.02, 0.00, -187500.02, -187500.02, 0.000, 0.000, 0.000, 13:57:29.500, 1574276249500
144, -187500.02, 10942.61, 4727.55, -187500.02, -187500.02, 0.00, -187500.02, -187500.02, 0.000, 0.000, 0.000, 13:57:29.500, 1574276249500
145, -187500.02, 10874.17, 4729.00, -187500.02, -187500.02, 0.00, -187500.02, -187500.02, 0.000, 0.000, 0.000, 13:57:29.500, 1574276249500
146, -187500.02, 10879.93, 4800.55, -187500.02, -187500.02, 0.00, -187500.02, -187500.02, 0.000, 0.000, 0.000, 13:57:29.500, 1574276249500
147, -187500.02, 10877.57, 4882.13, -187500.02, -187500.02, 0.00, -187500.02, -187500.02, 0.000, 0.000, 0.000, 13:57:29.500, 1574276249500
148, -187500.02, 10905.55, 4788.88, -187500.02, -187500.02, 0.00, -187500.02, -187500.02, 0.000, 0.000, 0.000, 13:57:29.500, 1574276249500
149, -187500.02, 10931.63, 4792.71, -187500.02, -187500.02, 0.00, -187500.02, -187500.02, 0.000, 0.000, 0.000, 13:57:29.501, 1574276249501
150, -187500.02, 10949.81, 4780.86, -187500.02, -187500.02, 0.00, -187500.02, -187500.02, -0.006, -0.016, 0.988, 13:57:29.558, 1574276249558
151, -187500.02, 10939.75, 4749.99, -187500.02, -187500.02, 0.00, -187500.02, -187500.02, 0.000, 0.000, 0.000, 13:57:29.558, 1574276249558
152, -187500.02, 10900.48, 4713.92, -187500.02, -187500.02, 0.00, -187500.02, -187500.02, 0.000, 0.000, 0.000, 13:57:29.558, 1574276249558
153, -187500.02, 10903.81, 4779.29, -187500.02, -187500.02, 0.00, -187500.02, -187500.02, 0.000, 0.000, 0.000, 13:57:29.559, 1574276249559
154, -187500.02, 10897.79, 4780.39, -187500.02, -187500.02, 0.00, -187500.02, -187500.02, 0.000, 0.000, 0.000, 13:57:29.559, 1574276249559
155, -187500.02, 10863.62, 4777.91, -187500.02, -187500.02, 0.00, -187500.02, -187500.02, 0.000, 0.000, 0.000, 13:57:29.559, 1574276249559
156, -187500.02, 10830.98, 4726.99, -187500.02, -187500.02, 0.00, -187500.02, -187500.02, 0.000, 0.000, 0.000, 13:57:29.559, 1574276249559
157, -187500.02, 10835.59, 4727.86, -187500.02, -187500.02, 0.00, -187500.02, -187500.02, 0.000, 0.000, 0.000, 13:57:29.559, 1574276249559
158, -187500.02, 10919.43, 4774.53, -187500.02, -187500.02, 0.00, -187500.02, -187500.02, 0.000, 0.000, 0.000, 13:57:29.559, 1574276249559
159, -187500.02, 10927.50, 4758.87, -187500.02, -187500.02, 0.00, -187500.02, -187500.02, 0.000, 0.000, 0.000, 13:57:29.559, 1574276249559
160, -187500.02, 10886.22, 4734.73, -187500.02, -187500.02, 0.00, -187500.02, -187500.02, 0.002, -0.016, 0.986, 13:57:29.559, 1574276249559
161, -187500.02, 10866.55, 4743.87, -187500.02, -187500.02, 0.00, -187500.02, -187500.02, 0.000, 0.000, 0.000, 13:57:29.559, 1574276249559
162, -187500.02, 10844.71, 4762.89, -187500.02, -187500.02, 0.00, -187500.02, -187500.02, 0.000, 0.000, 0.000, 13:57:29.559, 1574276249559
163, -187500.02, 10856.38, 4733.85, -187500.02, -187500.02, 0.00, -187500.02, -187500.02, 0.000, 0.000, 0.000, 13:57:29.559, 1574276249559
164, -187500.02, 10834.23, 4698.25, -187500.02, -187500.02, 0.00, -187500.02, -187500.02, 0.000, 0.000, 0.000, 13:57:29.559, 1574276249559
165, -187500.02, 10858.39, 4642.21, -187500.02, -187500.02, 0.00, -187500.02, -187500.02, 0.000, 0.000, 0.000, 13:57:29.619, 1574276249619
166, -187500.02, 10905.37, 4732.15, -187500.02, -187500.02, 0.00, -187500.02, -187500.02, 0.000, 0.000, 0.000, 13:57:29.619, 1574276249619
167, -187500.02, 10902.20, 4750.39, -187500.02, -187500.02, 0.00, -187500.02, -187500.02, 0.000, 0.000, 0.000, 13:57:29.620, 1574276249620
168, -187500.02, 10894.96, 4718.79, -187500.02, -187500.02, 0.00, -187500.02, -187500.02, 0.000, 0.000, 0.000, 13:57:29.621, 1574276249621
169, -187500.02, 10837.78, 4734.01, -187500.02, -187500.02, 0.00, -187500.02, -187500.02, 0.000, 0.000, 0.000, 13:57:29.621, 1574276249621
170, -187500.02, 10821.62, 4824.24, -187500.02, -187500.02, 0.00, -187500.02, -187500.02, -0.002, -0.018, 0.986, 13:57:29.621, 1574276249621
171, -187500.02, 10885.97, 4764.48, -187500.02, -187500.02, 0.00, -187500.02, -187500.02, 0.000, 0.000, 0.000, 13:57:29.621, 1574276249621
172, -187500.02, 10909.57, 4690.92, -187500.02, -187500.02, 0.00, -187500.02, -187500.02, 0.000, 0.000, 0.000, 13:57:29.621, 1574276249621
173, -187500.02, 10886.75, 4670.71, -187500.02, -187500.02, 0.00, -187500.02, -187500.02, 0.000, 0.000, 0.000, 13:57:29.622, 1574276249622
174, -187500.02, 10904.12, 4706.41, -187500.02, -187500.02, 0.00, -187500.02, -187500.02, 0.000, 0.000, 0.000, 13:57:29.622, 1574276249622
175, -187500.02, 10916.73, 4704.01, -187500.02, -187500.02, 0.00, -187500.02, -187500.02, 0.000, 0.000, 0.000, 13:57:29.622, 1574276249622
176, -187500.02, 10900.99, 4718.88, -187500.02, -187500.02, 0.00, -187500.02, -187500.02, 0.000, 0.000, 0.000, 13:57:29.622, 1574276249622
177, -187500.02, 10882.24, 4762.73, -187500.02, -187500.02, 0.00, -187500.02, -187500.02, 0.000, 0.000, 0.000, 13:57:29.622, 1574276249622
178, -187500.02, 10903.09, 4759.33, -187500.02, -187500.02, 0.00, -187500.02, -187500.02, 0.000, 0.000, 0.000, 13:57:29.622, 1574276249622
179, -187500.02, 10904.88, 4731.60, -187500.02, -187500.02, 0.00, -187500.02, -187500.02, 0.000, 0.000, 0.000, 13:57:29.622, 1574276249622
180, -187500.02, 10913.13, 4740.92, -187500.02, -187500.02, 0.00, -187500.02, -187500.02, 0.002, -0.020, 0.986, 13:57:29.681, 1574276249681
181, -187500.02, 10899.07, 4734.30, -187500.02, -187500.02, 0.00, -187500.02, -187500.02, 0.000, 0.000, 0.000, 13:57:29.682, 1574276249682
182, -187500.02, 10883.06, 4734.64, -187500.02, -187500.02, 0.00, -187500.02, -187500.02, 0.000, 0.000, 0.000, 13:57:29.683, 1574276249683
183, -187500.02, 10916.19, 4680.25, -187500.02, -187500.02, 0.00, -187500.02, -187500.02, 0.000, 0.000, 0.000, 13:57:29.683, 1574276249683
184, -187500.02, 10934.79, 4676.57, -187500.02, -187500.02, 0.00, -187500.02, -187500.02, 0.000, 0.000, 0.000, 13:57:29.683, 1574276249683
185, -187500.02, 10964.74, 4724.67, -187500.02, -187500.02, 0.00, -187500.02, -187500.02, 0.000, 0.000, 0.000, 13:57:29.684, 1574276249684
186, -187500.02, 10942.05, 4769.59, -187500.02, -187500.02, 0.00, -187500.02, -187500.02, 0.000, 0.000, 0.000, 13:57:29.684, 1574276249684
187, -187500.02, 10905.71, 4748.40, -187500.02, -187500.02, 0.00, -187500.02, -187500.02, 0.000, 0.000, 0.000, 13:57:29.685, 1574276249685
188, -187500.02, 10893.01, 4762.20, -187500.02, -187500.02, 0.00, -187500.02, -187500.02, 0.000, 0.000, 0.000, 13:57:29.691, 1574276249691
189, -187500.02, 10948.06, 4713.47, -187500.02, -187500.02, 0.00, -187500.02, -187500.02, 0.000, 0.000, 0.000, 13:57:29.692, 1574276249692
190, -187500.02, 10929.42, 4718.61, -187500.02, -187500.02, 0.00, -187500.02, -187500.02, -0.002, -0.022, 0.990, 13:57:29.692, 1574276249692
191, -187500.02, 10936.06, 4739.69, -187500.02, -187500.02, 0.00, -187500.02, -187500.02, 0.000, 0.000, 0.000, 13:57:29.693, 1574276249693
192, -187500.02, 10974.42, 4689.80, -187500.02, -187500.02, 0.00, -187500.02, -187500.02, 0.000, 0.000, 0.000, 13:57:29.694, 1574276249694
193, -187500.02, 10935.68, 4707.88, -187500.02, -187500.02, 0.00, -187500.02, -187500.02, 0.000, 0.000, 0.000, 13:57:29.694, 1574276249694
194, -187500.02, 10910.74, 4758.64, -187500.02, -187500.02, 0.00, -187500.02, -187500.02, 0.000, 0.000, 0.000, 13:57:29.695, 1574276249695
195, -187500.02, 10974.21, 4726.37, -187500.02, -187500.02, 0.00, -187500.02, -187500.02, 0.000, 0.000, 0.000, 13:57:29.741, 1574276249741
196, -187500.02, 10961.50, 4702.43, -187500.02, -187500.02, 0.00, -187500.02, -187500.02, 0.000, 0.000, 0.000, 13:57:29.742, 1574276249742
197, -187500.02, 10956.69, 4695.19, -187500.02, -187500.02, 0.00, -187500.02, -187500.02, 0.000, 0.000, 0.000, 13:57:29.742, 1574276249742
198, -187500.02, 10954.79, 4721.31, -187500.02, -187500.02, 0.00, -187500.02, -187500.02, 0.000, 0.000, 0.000, 13:57:29.743, 1574276249743
199, -187500.02, 10939.35, 4744.90, -187500.02, -187500.02, 0.00, -187500.02, -187500.02, 0.000, 0.000, 0.000, 13:57:29.743, 1574276249743
200, -187500.02, 10946.61, 4729.09, -187500.02, -187500.02, 0.00, -187500.02, -187500.02, 0.000, -0.016, 0.992, 13:57:29.743, 1574276249743
201, -187500.02, 10957.58, 4696.53, -187500.02, -187500.02, 0.00, -187500.02, -187500.02, 0.000, 0.000, 0.000, 13:57:29.744, 1574276249744
202, -187500.02, 10987.47, 4709.31, -187500.02, -187500.02, 0.00, -187500.02, -187500.02, 0.000, 0.000, 0.000, 13:57:29.744, 1574276249744
203, -187500.02, 11019.10, 4684.95, -187500.02, -187500.02, 0.00, -187500.02, -187500.02, 0.000, 0.000, 0.000, 13:57:29.745, 1574276249745
204, -187500.02, 10965.21, 4686.89, -187500.02, -187500.02, 0.00, -187500.02, -187500.02, 0.000, 0.000, 0.000, 13:57:29.745, 1574276249745
205, -187500.02, 10951.21, 4657.25, -187500.02, -187500.02, 0.00, -187500.02, -187500.02, 0.000, 0.000, 0.000, 13:57:29.747, 1574276249747
206, -187500.02, 10982.15, 4708.62, -187500.02, -187500.02, 0.00, -187500.02, -187500.02, 0.000, 0.000, 0.000, 13:57:29.748, 1574276249748
207, -187500.02, 10964.83, 4742.62, -187500.02, -187500.02, 0.00, -187500.02, -187500.02, 0.000, 0.000, 0.000, 13:57:29.748, 1574276249748
208, -187500.02, 10964.76, 4783.25, -187500.02, -187500.02, 0.00, -187500.02, -187500.02, 0.000, 0.000, 0.000, 13:57:29.749, 1574276249749
209, -187500.02, 10985.08, 4695.27, -187500.02, -187500.02, 0.00, -187500.02, -187500.02, 0.000, 0.000, 0.000, 13:57:29.749, 1574276249749
210, -187500.02, 11000.28, 4642.32, -187500.02, -187500.02, 0.00, -187500.02, -187500.02, 0.000, -0.018, 0.990, 13:57:29.798, 1574276249798
211, -187500.02, 11003.29, 4668.47, -187500.02, -187500.02, 0.00, -187500.02, -187500.02, 0.000, 0.000, 0.000, 13:57:29.798, 1574276249798
212, -187500.02, 11005.08, 4684.57, -187500.02, -187500.02, 0.00, -187500.02, -187500.02, 0.000, 0.000, 0.000, 13:57:29.799, 1574276249799
213, -187500.02, 11016.95, 4675.56, -187500.02, -187500.02, 0.00, -187500.02, -187500.02, 0.000, 0.000, 0.000, 13:57:29.799, 1574276249799
214, -187500.02, 11017.02, 4688.08, -187500.02, -187500.02, 0.00, -187500.02, -187500.02, 0.000, 0.000, 0.000, 13:57:29.799, 1574276249799
215, -187500.02, 10983.07, 4690.85, -187500.02, -187500.02, 0.00, -187500.02, -187500.02, 0.000, 0.000, 0.000, 13:57:29.799, 1574276249799
216, -187500.02, 10999.18, 4686.74, -187500.02, -187500.02, 0.00, -187500.02, -187500.02, 0.000, 0.000, 0.000, 13:57:29.799, 1574276249799
217, -187500.02, 11007.36, 4670.58, -187500.02, -187500.02, 0.00, -187500.02, -187500.02, 0.000, 0.000, 0.000, 13:57:29.799, 1574276249799
218, -187500.02, 11017.60, 4637.56, -187500.02, -187500.02, 0.00, -187500.02, -187500.02, 0.000, 0.000, 0.000, 13:57:29.799, 1574276249799
219, -187500.02, 10976.83, 4679.14, -187500.02, -187500.02, 0.00, -187500.02, -187500.02, 0.000, 0.000, 0.000, 13:57:29.799, 1574276249799
220, -187500.02, 10982.40, 4743.46, -187500.02, -187500.02, 0.00, -187500.02, -187500.02, 0.000, -0.018, 0.996, 13:57:29.799, 1574276249799
221, -187500.02, 11019.54, 4728.91, -187500.02, -187500.02, 0.00, -187500.02, -187500.02, 0.000, 0.000, 0.000, 13:57:29.799, 1574276249799
222, -187500.02, 11034.63, 4675.31, -187500.02, -187500.02, 0.00, -187500.02, -187500.02, 0.000, 0.000, 0.000, 13:57:29.799, 1574276249799
223, -187500.02, 11026.07, 4623.91, -187500.02, -187500.02, 0.00, -187500.02, -187500.02, 0.000, 0.000, 0.000, 13:57:29.799, 1574276249799
224, -187500.02, 11041.54, 4625.87, -187500.02, -187500.02, 0.00, -187500.02, -187500.02, 0.000, 0.000, 0.000, 13:57:29.800, 1574276249800
225, -187500.02, 11011.77, 4652.09, -187500.02, -187500.02, 0.00, -187500.02, -187500.02, 0.000, 0.000, 0.000, 13:57:29.858, 1574276249858
226, -187500.02, 11019.77, 4650.82, -187500.02, -187500.02, 0.00, -187500.02, -187500.02, 0.000, 0.000, 0.000, 13:57:29.858, 1574276249858
227, -187500.02, 11010.04, 4658.22, -187500.02, -187500.02, 0.00, -187500.02, -187500.02, 0.000, 0.000, 0.000, 13:57:29.859, 1574276249859
228, -187500.02, 10995.02, 4651.60, -187500.02, -187500.02, 0.00, -187500.02, -187500.02, 0.000, 0.000, 0.000, 13:57:29.859, 1574276249859
229, -187500.02, 10992.52, 4658.73, -187500.02, -187500.02, 0.00, -187500.02, -187500.02, 0.000, 0.000, 0.000, 13:57:29.859, 1574276249859
230, -187500.02, 11021.26, 4696.15, -187500.02, -187500.02, 0.00, -187500.02, -187500.02, -0.004, -0.016, 0.996, 13:57:29.859, 1574276249859
231, -187500.02, 11036.26, 4644.42, -187500.02, -187500.02, 0.00, -187500.02, -187500.02, 0.000, 0.000, 0.000, 13:57:29.859, 1574276249859
232, -187500.02, 10959.93, 4664.32, -187500.02, -187500.02, 0.00, -187500.02, -187500.02, 0.000, 0.000, 0.000, 13:57:29.859, 1574276249859
233, -187500.02, 11004.08, 4662.19, -187500.02, -187500.02, 0.00, -187500.02, -187500.02, 0.000, 0.000, 0.000, 13:57:29.859, 1574276249859
234, -187500.02, 11028.71, 4693.80, -187500.02, -187500.02, 0.00, -187500.02, -187500.02, 0.000, 0.000, 0.000, 13:57:29.859, 1574276249859
235, -187500.02, 11065.54, 4647.69, -187500.02, -187500.02, 0.00, -187500.02, -187500.02, 0.000, 0.000, 0.000, 13:57:29.859, 1574276249859
236, -187500.02, 11061.50, 4640.92, -187500.02, -187500.02, 0.00, -187500.02, -187500.02, 0.000, 0.000, 0.000, 13:57:29.860, 1574276249860
237, -187500.02, 11032.82, 4650.64, -187500.02, -187500.02, 0.00, -187500.02, -187500.02, 0.000, 0.000, 0.000, 13:57:29.860, 1574276249860
238, -187500.02, 11039.28, 4661.88, -187500.02, -187500.02, 0.00, -187500.02, -187500.02, 0.000, 0.000, 0.000, 13:57:29.860, 1574276249860
239, -187500.02, 11020.42, 4669.99, -187500.02, -187500.02, 0.00, -187500.02, -187500.02, 0.000, 0.000, 0.000, 13:57:29.860, 1574276249860
240, -187500.02, 11017.96, 4602.05, -187500.02, -187500.02, 0.00, -187500.02, -187500.02, -0.004, -0.020, 0.992, 13:57:29.919, 1574276249919
241, -187500.02, 11020.17, 4632.06, -187500.02, -187500.02, 0.00, -187500.02, -187500.02, 0.000, 0.000, 0.000, 13:57:29.920, 1574276249920
242, -187500.02, 10994.55, 4708.15, -187500.02, -187500.02, 0.00, -187500.02, -187500.02, 0.000, 0.000, 0.000, 13:57:29.920, 1574276249920
243, -187500.02, 11057.94, 4655.20, -187500.02, -187500.02, 0.00, -187500.02, -187500.02, 0.000, 0.000, 0.000, 13:57:29.920, 1574276249920
244, -187500.02, 11047.33, 4612.86, -187500.02, -187500.02, 0.00, -187500.02, -187500.02, 0.000, 0.000, 0.000, 13:57:29.921, 1574276249921
245, -187500.02, 11023.43, 4620.98, -187500.02, -187500.02, 0.00, -187500.02, -187500.02, 0.000, 0.000, 0.000, 13:57:29.922, 1574276249922
246, -187500.02, 11039.53, 4651.73, -187500.02, -187500.02, 0.00, -187500.02, -187500.02, 0.000, 0.000, 0.000, 13:57:29.922, 1574276249922
247, -187500.02, 11070.06, 4636.11, -187500.02, -187500.02, 0.00, -187500.02, -187500.02, 0.000, 0.000, 0.000, 13:57:29.923, 1574276249923
248, -187500.02, 11031.35, 4641.59, -187500.02, -187500.02, 0.00, -187500.02, -187500.02, 0.000, 0.000, 0.000, 13:57:29.923, 1574276249923
249, -187500.02, 11024.26, 4659.53, -187500.02, -187500.02, 0.00, -187500.02, -187500.02, 0.000, 0.000, 0.000, 13:57:29.923, 1574276249923
250, -187500.02, 11009.15, 4650.59, -187500.02, -187500.02, 0.00, -187500.02, -187500.02, -0.002, -0.014, 0.990, 13:57:29.923, 1574276249923
251, -187500.02, 11029.98, 4655.06, -187500.02, -187500.02, 0.00, -187500.02, -187500.02, 0.000, 0.000, 0.000, 13:57:29.924, 1574276249924
252, -187500.02, 11065.03, 4661.52, -187500.02, -187500.02, 0.00, -187500.02, -187500.02, 0.000, 0.000, 0.000, 13:57:29.924, 1574276249924
253, -187500.02, 11033.65, 4676.79, -187500.02, -187500.02, 0.00, -187500.02, -187500.02, 0.000, 0.000, 0.000, 13:57:29.924, 1574276249924
254, -187500.02, 11077.95, 4645.54, -187500.02, -187500.02, 0.00, -187500.02, -187500.02, 0.000, 0.000, 0.000, 13:57:29.924, 1574276249924
255, -187500.02, 11083.20, 4608.62, -187500.02, -187500.02, 0.00, -187500.02, -187500.02, 0.000, 0.000, 0.000, 13:57:29.980, 1574276249980
0, -187500.02, 11055.15, 4642.19, -187500.02, -187500.02, 0.00, -187500.02, -187500.02, 0.000, 0.000, 0.000, 13:57:29.981, 1574276249981
1, -187500.02, 11047.53, 4639.46, -187500.02, -187500.02, 0.00, -187500.02, -187500.02, 0.000, 0.000, 0.000, 13:57:29.981, 1574276249981
2, -187500.02, 11054.03, 4634.32, -187500.02, -187500.02, 0.00, -187500.02, -187500.02, 0.000, 0.000, 0.000, 13:57:29.981, 1574276249981
3, -187500.02, 11097.37, 4634.99, -187500.02, -187500.02, 0.00, -187500.02, -187500.02, 0.000, 0.000, 0.000, 13:57:29.981, 1574276249981
4, -187500.02, 11073.61, 4670.64, -187500.02, -187500.02, 0.00, -187500.02, -187500.02, 0.002, -0.014, 0.986, 13:57:29.982, 1574276249982
5, -187500.02, 11029.49, 4678.24, -187500.02, -187500.02, 0.00, -187500.02, -187500.02, 0.000, 0.000, 0.000, 13:57:29.982, 1574276249982
6, -187500.02, 11018.58, 4662.04, -187500.02, -187500.02, 0.00, -187500.02, -187500.02, 0.000, 0.000, 0.000, 13:57:29.982, 1574276249982
7, -187500.02, 11061.68, 4679.18, -187500.02, -187500.02, 0.00, -187500.02, -187500.02, 0.000, 0.000, 0.000, 13:57:29.982, 1574276249982
8, -187500.02, 11103.07, 4623.59, -187500.02, -187500.02, 0.00, -187500.02, -187500.02, 0.000, 0.000, 0.000, 13:57:29.982, 1574276249982
9, -187500.02, 11097.06, 4618.23, -187500.02, -187500.02, 0.00, -187500.02, -187500.02, 0.000, 0.000, 0.000, 13:57:29.983, 1574276249983
10, -187500.02, 11086.15, 4633.72, -187500.02, -187500.02, 0.00, -187500.02, -187500.02, 0.000, 0.000, 0.000, 13:57:29.984, 1574276249984
11, -187500.02, 11072.38, 4638.30, -187500.02, -187500.02, 0.00, -187500.02, -187500.02, 0.000, 0.000, 0.000, 13:57:29.984, 1574276249984
12, -187500.02, 11036.04, 4663.24, -187500.02, -187500.02, 0.00, -187500.02, -187500.02, 0.000, 0.000, 0.000, 13:57:29.985, 1574276249985
13, -187500.02, 11066.84, 4699.63, -187500.02, -187500.02, 0.00, -187500.02, -187500.02, 0.000, 0.000, 0.000, 13:57:29.985, 1574276249985
14, -187500.02, 11088.28, 4687.81, -187500.02, -187500.02, 0.00, -187500.02, -187500.02, 0.000, -0.014, 0.980, 13:57:30.040, 1574276250040
15, -187500.02, 11094.98, 4679.14, -187500.02, -187500.02, 0.00, -187500.02, -187500.02, 0.000, 0.000, 0.000, 13:57:30.040, 1574276250040
16, -187500.02, 11113.24, 4614.83, -187500.02, -187500.02, 0.00, -187500.02, -187500.02, 0.000, 0.000, 0.000, 13:57:30.041, 1574276250041
17, -187500.02, 11102.33, 4594.56, -187500.02, -187500.02, 0.00, -187500.02, -187500.02, 0.000, 0.000, 0.000, 13:57:30.041, 1574276250041
18, -187500.02, 11050.28, 4657.90, -187500.02, -187500.02, 0.00, -187500.02, -187500.02, 0.000, 0.000, 0.000, 13:57:30.041, 1574276250041
19, -187500.02, 11057.47, 4678.31, -187500.02, -187500.02, 0.00, -187500.02, -187500.02, 0.000, 0.000, 0.000, 13:57:30.042, 1574276250042
20, -187500.02, 11110.74, 4640.18, -187500.02, -187500.02, 0.00, -187500.02, -187500.02, 0.000, 0.000, 0.000, 13:57:30.042, 1574276250042
21, -187500.02, 11112.10, 4645.41, -187500.02, -187500.02, 0.00, -187500.02, -187500.02, 0.000, 0.000, 0.000, 13:57:30.042, 1574276250042
22, -187500.02, 11061.63, 4676.19, -187500.02, -187500.02, 0.00, -187500.02, -187500.02, 0.000, 0.000, 0.000, 13:57:30.042, 1574276250042
23, -187500.02, 11105.71, 4652.11, -187500.02, -187500.02, 0.00, -187500.02, -187500.02, -0.004, -0.014, 0.984, 13:57:30.043, 1574276250043
24, -187500.02, 11100.68, 4627.28, -187500.02, -187500.02, 0.00, -187500.02, -187500.02, 0.000, 0.000, 0.000, 13:57:30.043, 1574276250043
25, -187500.02, 11081.82, 4622.94, -187500.02, -187500.02, 0.00, -187500.02, -187500.02, 0.000, 0.000, 0.000, 13:57:30.043, 1574276250043
26, -187500.02, 11085.75, 4678.64, -187500.02, -187500.02, 0.00, -187500.02, -187500.02, 0.000, 0.000, 0.000, 13:57:30.044, 1574276250044
27, -187500.02, 11115.59, 4661.08, -187500.02, -187500.02, 0.00, -187500.02, -187500.02, 0.000, 0.000, 0.000, 13:57:30.044, 1574276250044
28, -187500.02, 11090.02, 4653.10, -187500.02, -187500.02, 0.00, -187500.02, -187500.02, 0.000, 0.000, 0.000, 13:57:30.044, 1574276250044
29, -187500.02, 11103.99, 4660.47, -187500.02, -187500.02, 0.00, -187500.02, -187500.02, 0.000, 0.000, 0.000, 13:57:30.100, 1574276250100
30, -187500.02, 11111.14, 4665.55, -187500.02, -187500.02, 0.00, -187500.02, -187500.02, 0.000, 0.000, 0.000, 13:57:30.101, 1574276250101
31, -187500.02, 11096.43, 4654.28, -187500.02, -187500.02, 0.00, -187500.02, -187500.02, 0.000, 0.000, 0.000, 13:57:30.101, 1574276250101
32, -187500.02, 11121.89, 4650.37, -187500.02, -187500.02, 0.00, -187500.02, -187500.02, 0.000, 0.000, 0.000, 13:57:30.102, 1574276250102
33, -187500.02, 11115.86, 4639.80, -187500.02, -187500.02, 0.00, -187500.02, -187500.02, -0.002, -0.016, 0.990, 13:57:30.102, 1574276250102
34, -187500.02, 11080.50, 4637.23, -187500.02, -187500.02, 0.00, -187500.02, -187500.02, 0.000, 0.000, 0.000, 13:57:30.103, 1574276250103
35, -187500.02, 11069.90, 4644.83, -187500.02, -187500.02, 0.00, -187500.02, -187500.02, 0.000, 0.000, 0.000, 13:57:30.103, 1574276250103
36, -187500.02, 11117.18, 4642.52, -187500.02, -187500.02, 0.00, -187500.02, -187500.02, 0.000, 0.000, 0.000, 13:57:30.103, 1574276250103
37, -187500.02, 11114.20, 4652.67, -187500.02, -187500.02, 0.00, -187500.02, -187500.02, 0.000, 0.000, 0.000, 13:57:30.103, 1574276250103
38, -187500.02, 11077.81, 4667.78, -187500.02, -187500.02, 0.00, -187500.02, -187500.02, 0.000, 0.000, 0.000, 13:57:30.104, 1574276250104
39, -187500.02, 11083.09, 4667.31, -187500.02, -187500.02, 0.00, -187500.02, -187500.02, 0.000, 0.000, 0.000, 13:57:30.104, 1574276250104
40, -187500.02, 11112.66, 4653.54, -187500.02, -187500.02, 0.00, -187500.02, -187500.02, 0.000, 0.000, 0.000, 13:57:30.104, 1574276250104
41, -187500.02, 11143.89, 4652.40, -187500.02, -187500.02, 0.00, -187500.02, -187500.02, 0.000, 0.000, 0.000, 13:57:30.104, 1574276250104
42, -187500.02, 11090.85, 4700.62, -187500.02, -187500.02, 0.00, -187500.02, -187500.02, 0.000, 0.000, 0.000, 13:57:30.105, 1574276250105
43, -187500.02, 11078.51, 4643.64, -187500.02, -187500.02, 0.00, -187500.02, -187500.02, -0.002, -0.020, 0.990, 13:57:30.105, 1574276250105
44, -187500.02, 11077.66, 4647.89, -187500.02, -187500.02, 0.00, -187500.02, -187500.02, 0.000, 0.000, 0.000, 13:57:30.159, 1574276250159
45, -187500.02, 11110.36, 4650.64, -187500.02, -187500.02, 0.00, -187500.02, -187500.02, 0.000, 0.000, 0.000, 13:57:30.159, 1574276250159
46, -187500.02, 11136.29, 4652.72, -187500.02, -187500.02, 0.00, -187500.02, -187500.02, 0.000, 0.000, 0.000, 13:57:30.159, 1574276250159
47, -187500.02, 11061.92, 4674.98, -187500.02, -187500.02, 0.00, -187500.02, -187500.02, 0.000, 0.000, 0.000, 13:57:30.159, 1574276250159
48, -187500.02, 11081.08, 4687.67, -187500.02, -187500.02, 0.00, -187500.02, -187500.02, 0.000, 0.000, 0.000, 13:57:30.160, 1574276250160
49, -187500.02, 11130.45, 4656.52, -187500.02, -187500.02, 0.00, -187500.02, -187500.02, 0.000, 0.000, 0.000, 13:57:30.160, 1574276250160
50, -187500.02, 11102.29, 4651.58, -187500.02, -187500.02, 0.00, -187500.02, -187500.02, 0.000, 0.000, 0.000, 13:57:30.160, 1574276250160
51, -187500.02, 11149.63, 4602.94, -187500.02, -187500.02, 0.00, -187500.02, -187500.02, 0.000, 0.000, 0.000, 13:57:30.160, 1574276250160
52, -187500.02, 11134.50, 4655.98, -187500.02, -187500.02, 0.00, -187500.02, -187500.02, 0.000, 0.000, 0.000, 13:57:30.160, 1574276250160
53, -187500.02, 11082.60, 4673.93, -187500.02, -187500.02, 0.00, -187500.02, -187500.02, 0.004, -0.022, 0.992, 13:57:30.160, 1574276250160
54, -187500.02, 11113.94, 4638.34, -187500.02, -187500.02, 0.00, -187500.02, -187500.02, 0.000, 0.000, 0.000, 13:57:30.161, 1574276250161
55, -187500.02, 11096.21, 4651.49, -187500.02, -187500.02, 0.00, -187500.02, -187500.02, 0.000, 0.000, 0.000, 13:57:30.161, 1574276250161
56, -187500.02, 11133.47, 4663.83, -187500.02, -187500.02, 0.00, -187500.02, -187500.02, 0.000, 0.000, 0.000, 13:57:30.161, 1574276250161
57, -187500.02, 11157.03, 4654.19, -187500.02, -187500.02, 0.00, -187500.02, -187500.02, 0.000, 0.000, 0.000, 13:57:30.161, 1574276250161
58, -187500.02, 11117.40, 4648.76, -187500.02, -187500.02, 0.00, -187500.02, -187500.02, 0.000, 0.000, 0.000, 13:57:30.161, 1574276250161
59, -187500.02, 11099.07, 4619.46, -187500.02, -187500.02, 0.00, -187500.02, -187500.02, 0.000, 0.000, 0.000, 13:57:30.220, 1574276250220
60, -187500.02, 11113.80, 4654.33, -187500.02, -187500.02, 0.00, -187500.02, -187500.02, 0.000, 0.000, 0.000, 13:57:30.220, 1574276250220
61, -187500.02, 11105.20, 4681.42, -187500.02, -187500.02, 0.00, -187500.02, -187500.02, 0.000, 0.000, 0.000, 13:57:30.220, 1574276250220
62, -187500.02, 11131.93, 4639.93, -187500.02, -187500.02, 0.00, -187500.02, -187500.02, 0.000, 0.000, 0.000, 13:57:30.221, 1574276250221
63, -187500.02, 11125.36, 4648.67, -187500.02, -187500.02, 0.00, -187500.02, -187500.02, 0.002, -0.018, 0.990, 13:57:30.222, 1574276250222
64, -187500.02, 11131.93, 4631.97, -187500.02, -187500.02, 0.00, -187500.02, -187500.02, 0.000, 0.000, 0.000, 13:57:30.222, 1574276250222
65, -187500.02, 11113.13, 4637.03, -187500.02, -187500.02, 0.00, -187500.02, -187500.02, 0.000, 0.000, 0.000, 13:57:30.223, 1574276250223
66, -187500.02, 11115.25, 4667.00, -187500.02, -187500.02, 0.00, -187500.02, -187500.02, 0.000, 0.000, 0.000, 13:57:30.223, 1574276250223
67, -187500.02, 11132.87, 4644.04, -187500.02, -187500.02, 0.00, -187500.02, -187500.02, 0.000, 0.000, 0.000, 13:57:30.223, 1574276250223
68, -187500.02, 11121.62, 4623.61, -187500.02, -187500.02, 0.00, -187500.02, -187500.02, 0.000, 0.000, 0.000, 13:57:30.224, 1574276250224
69, -187500.02, 11102.87, 4653.10, -187500.02, -187500.02, 0.00, -187500.02, -187500.02, 0.000, 0.000, 0.000, 13:57:30.224, 1574276250224
70, -187500.02, 11087.67, 4650.75, -187500.02, -187500.02, 0.00, -187500.02, -187500.02, 0.000, 0.000, 0.000, 13:57:30.224, 1574276250224
71, -187500.02, 11087.67, 4657.68, -187500.02, -187500.02, 0.00, -187500.02, -187500.02, 0.000, 0.000, 0.000, 13:57:30.224, 1574276250224
72, -187500.02, 11152.47, 4636.29, -187500.02, -187500.02, 0.00, -187500.02, -187500.02, 0.000, 0.000, 0.000, 13:57:30.224, 1574276250224
73, -187500.02, 11157.39, 4655.00, -187500.02, -187500.02, 0.00, -187500.02, -187500.02, 0.000, -0.016, 0.988, 13:57:30.224, 1574276250224
74, -187500.02, 11165.81, 4634.54, -187500.02, -187500.02, 0.00, -187500.02, -187500.02, 0.000, 0.000, 0.000, 13:57:30.280, 1574276250280
75, -187500.02, 11141.20, 4615.95, -187500.02, -187500.02, 0.00, -187500.02, -187500.02, 0.000, 0.000, 0.000, 13:57:30.281, 1574276250281
76, -187500.02, 11119.08, 4602.89, -187500.02, -187500.02, 0.00, -187500.02, -187500.02, 0.000, 0.000, 0.000, 13:57:30.282, 1574276250282
77, -187500.02, 11115.25, 4643.17, -187500.02, -187500.02, 0.00, -187500.02, -187500.02, 0.000, 0.000, 0.000, 13:57:30.283, 1574276250283
78, -187500.02, 11134.03, 4667.02, -187500.02, -187500.02, 0.00, -187500.02, -187500.02, 0.000, 0.000, 0.000, 13:57:30.283, 1574276250283
79, -187500.02, 11146.90, 4631.24, -187500.02, -187500.02, 0.00, -187500.02, -187500.02, 0.000, 0.000, 0.000, 13:57:30.284, 1574276250284
80, -187500.02, 11116.21, 4637.05, -187500.02, -187500.02, 0.00, -187500.02, -187500.02, 0.000, 0.000, 0.000, 13:57:30.285, 1574276250285
81, -187500.02, 11076.32, 4647.49, -187500.02, -187500.02, 0.00, -187500.02, -187500.02, 0.000, 0.000, 0.000, 13:57:30.286, 1574276250286
82, -187500.02, 11105.42, 4635.62, -187500.02, -187500.02, 0.00, -187500.02, -187500.02, 0.000, 0.000, 0.000, 13:57:30.286, 1574276250286
83, -187500.02, 11168.81, 4628.00, -187500.02, -187500.02, 0.00, -187500.02, -187500.02, -0.004, -0.016, 0.990, 13:57:30.287, 1574276250287
84, -187500.02, 11160.25, 4661.57, -187500.02, -187500.02, 0.00, -187500.02, -187500.02, 0.000, 0.000, 0.000, 13:57:30.288, 1574276250288
85, -187500.02, 11144.89, 4659.51, -187500.02, -187500.02, 0.00, -187500.02, -187500.02, 0.000, 0.000, 0.000, 13:57:30.289, 1574276250289
86, -187500.02, 11129.78, 4645.21, -187500.02, -187500.02, 0.00, -187500.02, -187500.02, 0.000, 0.000, 0.000, 13:57:30.289, 1574276250289
87, -187500.02, 11125.22, 4632.02, -187500.02, -187500.02, 0.00, -187500.02, -187500.02, 0.000, 0.000, 0.000, 13:57:30.290, 1574276250290
88, -187500.02, 11164.09, 4619.86, -187500.02, -187500.02, 0.00, -187500.02, -187500.02, 0.000, 0.000, 0.000, 13:57:30.290, 1574276250290
89, -187500.02, 11162.71, 4619.10, -187500.02, -187500.02, 0.00, -187500.02, -187500.02, 0.000, 0.000, 0.000, 13:57:30.340, 1574276250340
90, -187500.02, 11139.35, 4637.18, -187500.02, -187500.02, 0.00, -187500.02, -187500.02, 0.000, 0.000, 0.000, 13:57:30.341, 1574276250341
91, -187500.02, 11137.02, 4629.18, -187500.02, -187500.02, 0.00, -187500.02, -187500.02, 0.000, 0.000, 0.000, 13:57:30.342, 1574276250342
92, -187500.02, 11132.02, 4624.44, -187500.02, -187500.02, 0.00, -187500.02, -187500.02, 0.000, 0.000, 0.000, 13:57:30.342, 1574276250342
93, -187500.02, 11116.71, 4632.33, -187500.02, -187500.02, 0.00, -187500.02, -187500.02, -0.002, -0.020, 0.986, 13:57:30.343, 1574276250343
94, -187500.02, 11139.71, 4634.88, -187500.02, -187500.02, 0.00, -187500.02, -187500.02, 0.000, 0.000, 0.000, 13:57:30.343, 1574276250343
95, -187500.02, 11143.98, 4641.32, -187500.02, -187500.02, 0.00, -187500.02, -187500.02, 0.000, 0.000, 0.000, 13:57:30.343, 1574276250343
